Source: Spectrum Viewer

Chart: Pulse Spectrum

Series: 
Wavelength (nm)	S (a.u.)
1179.9	0
1180.29	0
1180.68	0
1181.06	0
1181.45	0
1181.83	0
1182.22	0
1182.6	0
1182.99	0
1183.38	0
1183.76	0
1184.15	0
1184.53	0
1184.92	0
1185.3	0
1185.69	0
1186.07	0
1186.46	0
1186.85	0
1187.23	0
1187.62	0
1188	0
1188.39	0
1188.77	0
1189.16	0
1189.54	0
1189.93	0
1190.31	0
1190.7	0
1191.08	0
1191.47	0
1191.85	0
1192.24	0
1192.62	0
1193.01	0
1193.39	0
1193.78	0
1194.16	0
1194.55	0
1194.93	0
1195.32	0
1195.7	0
1196.09	0
1196.47	0
1196.86	0
1197.24	0
1197.63	0
1198.01	0
1198.4	0
1198.78	0
1199.16	0
1199.55	0
1199.93	0
1200.32	0
1200.7	0
1201.09	0
1201.47	0
1201.86	0
1202.24	0
1202.63	0
1203.01	0
1203.39	0
1203.78	0
1204.16	0
1204.55	0
1204.93	0
1205.32	0
1205.7	0
1206.08	0
1206.47	0
1206.85	0
1207.24	0
1207.62	0
1208	0
1208.39	0
1208.77	0
1209.16	0
1209.54	0
1209.92	0
1210.31	0
1210.69	0
1211.08	0
1211.46	0
1211.84	0
1212.23	0
1212.61	0
1213	0
1213.38	0
1213.76	0
1214.15	0
1214.53	0
1214.91	0
1215.3	0
1215.68	0
1216.06	0
1216.45	0
1216.83	0
1217.22	0
1217.6	0
1217.98	0
1218.37	0
1218.75	0
1219.13	0
1219.52	0
1219.9	0
1220.28	0
1220.67	0
1221.05	0
1221.43	0
1221.82	0
1222.2	0
1222.58	0
1222.97	0
1223.35	0
1223.73	0
1224.11	0
1224.5	0
1224.88	0
1225.26	0
1225.65	0
1226.03	0
1226.41	0
1226.8	0
1227.18	0
1227.56	0
1227.94	0
1228.33	0
1228.71	0
1229.09	0
1229.47	0
1229.86	0
1230.24	0
1230.62	0
1231.01	0
1231.39	0
1231.77	0
1232.15	0
1232.54	0
1232.92	0
1233.3	0
1233.68	0
1234.07	0
1234.45	0
1234.83	0
1235.21	0
1235.6	0
1235.98	0
1236.36	0
1236.74	0
1237.12	0
1237.51	0
1237.89	0
1238.27	0
1238.65	0
1239.04	0
1239.42	0
1239.8	0
1240.18	0
1240.56	0
1240.95	0
1241.33	0
1241.71	0
1242.09	0
1242.47	0
1242.86	0
1243.24	0
1243.62	0
1244	0
1244.38	0
1244.77	0
1245.15	0
1245.53	0
1245.91	0
1246.29	0
1246.67	0
1247.06	0
1247.44	0
1247.82	0
1248.2	0
1248.58	0
1248.96	0
1249.34	0
1249.73	0
1250.11	0
1250.49	0
1250.87	0
1251.25	0
1251.63	0
1252.01	0
1252.4	0
1252.78	0
1253.16	0
1253.54	0
1253.92	0
1254.3	0
1254.68	0
1255.06	0
1255.45	0
1255.83	0
1256.21	0
1256.59	0
1256.97	0
1257.35	0
1257.73	0
1258.11	0
1258.49	0
1258.87	0
1259.26	0
1259.64	0
1260.02	0
1260.4	0
1260.78	0
1261.16	0
1261.54	0
1261.92	0
1262.3	0
1262.68	0
1263.06	0
1263.44	0
1263.82	0
1264.21	0
1264.59	0
1264.97	0
1265.35	0
1265.73	0
1266.11	0
1266.49	0
1266.87	0
1267.25	0
1267.63	0
1268.01	0
1268.39	0
1268.77	0
1269.15	0
1269.53	0
1269.91	0
1270.29	0
1270.67	0
1271.05	0
1271.43	0
1271.81	0
1272.19	0
1272.57	0
1272.95	0
1273.33	0
1273.71	0
1274.09	0
1274.47	0
1274.85	0
1275.23	0
1275.61	0
1275.99	0
1276.37	0
1276.75	0
1277.13	0
1277.51	0
1277.89	0
1278.27	0
1278.65	0
1279.03	0
1279.41	0
1279.79	0
1280.17	0
1280.55	0
1280.93	0
1281.31	0
1281.69	0
1282.07	0
1282.45	0
1282.82	0
1283.2	0
1283.58	0
1283.96	0
1284.34	0
1284.72	0
1285.1	0
1285.48	0
1285.86	0
1286.24	0
1286.62	0
1287	0
1287.38	0
1287.75	0
1288.13	0
1288.51	0
1288.89	0
1289.27	0
1289.65	0
1290.03	0
1290.41	0
1290.79	0
1291.17	0
1291.54	0
1291.92	0
1292.3	0
1292.68	0
1293.06	0
1293.44	0
1293.82	0
1294.2	0
1294.57	0
1294.95	0
1295.33	0
1295.71	0
1296.09	0
1296.47	0
1296.85	0
1297.22	0
1297.6	0
1297.98	0
1298.36	0
1298.74	0
1299.12	0
1299.5	0
1299.87	0
1300.25	0
1300.63	0
1301.01	0
1301.39	0
1301.77	0
1302.14	0
1302.52	0
1302.9	0
1303.28	0
1303.66	0
1304.03	0
1304.41	0
1304.79	0
1305.17	0
1305.55	0
1305.92	0
1306.3	0
1306.68	0
1307.06	0
1307.44	0
1307.81	0
1308.19	0
1308.57	0
1308.95	0
1309.32	0
1309.7	0
1310.08	0
1310.46	0
1310.84	0
1311.21	0
1311.59	0
1311.97	0
1312.35	0
1312.72	0
1313.1	0
1313.48	0
1313.86	0
1314.23	0
1314.61	0
1314.99	0
1315.37	0
1315.74	0
1316.12	0
1316.5	0
1316.87	0
1317.25	0
1317.63	0
1318.01	0
1318.38	0
1318.76	0
1319.14	0
1319.52	0
1319.89	0
1320.27	0
1320.65	0
1321.02	0
1321.4	0
1321.78	0
1322.15	0
1322.53	0
1322.91	0
1323.29	0
1323.66	0
1324.04	0
1324.42	0
1324.79	0
1325.17	0
1325.55	0
1325.92	0
1326.3	0
1326.68	0
1327.05	0
1327.43	0
1327.81	0
1328.18	0
1328.56	0
1328.94	0
1329.31	0
1329.69	0
1330.06	0
1330.44	0
1330.82	0
1331.19	0
1331.57	0
1331.95	0
1332.32	0
1332.7	0
1333.08	0
1333.45	0
1333.83	0
1334.2	0
1334.58	0
1334.96	0
1335.33	0
1335.71	0
1336.08	0
1336.46	0
1336.84	0
1337.21	0
1337.59	0
1337.96	0
1338.34	0
1338.72	0
1339.09	0
1339.47	0
1339.84	0
1340.22	0
1340.6	0
1340.97	0
1341.35	0
1341.72	0
1342.1	0
1342.47	0
1342.85	0
1343.23	0
1343.6	0
1343.98	0
1344.35	0
1344.73	0
1345.1	0
1345.48	0
1345.85	0
1346.23	0
1346.61	0
1346.98	0
1347.36	0
1347.73	0
1348.11	0
1348.48	0
1348.86	0
1349.23	0
1349.61	0
1349.98	0
1350.36	0
1350.73	0
1351.11	0
1351.48	0
1351.86	0
1352.23	0
1352.61	0
1352.98	0
1353.36	0
1353.73	0
1354.11	0
1354.48	0
1354.86	0
1355.23	0
1355.61	0
1355.98	0
1356.36	0
1356.73	0
1357.11	0
1357.48	0
1357.86	0
1358.23	0
1358.61	0
1358.98	0
1359.35	0
1359.73	0
1360.1	0
1360.48	0
1360.85	0
1361.23	0
1361.6	0
1361.98	0
1362.35	0
1362.72	0
1363.1	0
1363.47	0
1363.85	0
1364.22	0
1364.6	0
1364.97	0
1365.34	0
1365.72	0
1366.09	0
1366.47	0
1366.84	0
1367.22	0
1367.59	0
1367.96	0
1368.34	0
1368.71	0
1369.09	0
1369.46	-1
1369.83	-0.96
1370.21	-0.92
1370.58	-0.8
1370.96	-0.8
1371.33	0.36
1371.7	0.6
1372.08	0.56
1372.45	0.52
1372.82	0.6
1373.2	0.44
1373.57	0.24
1373.95	0.24
1374.32	0.16
1374.69	0.08
1375.07	0.08
1375.44	0
1375.81	0.04
1376.19	0.24
1376.56	0.24
1376.93	0.24
1377.31	0.44
1377.68	0.4
1378.05	0.32
1378.43	0.36
1378.8	0.36
1379.17	0.24
1379.55	0.32
1379.92	0.2
1380.29	0.16
1380.67	0.44
1381.04	0.36
1381.41	0.32
1381.79	0.32
1382.16	0.56
1382.53	0.36
1382.91	-0.44
1383.28	-0.44
1383.65	0.2
1384.03	0.04
1384.4	-0.04
1384.77	0.76
1385.14	0.88
1385.52	0.32
1385.89	0.52
1386.26	0.84
1386.64	0.96
1387.01	0.8
1387.38	0.8
1387.75	0.84
1388.13	0.64
1388.5	0.52
1388.87	0.6
1389.25	0.52
1389.62	0.08
1389.99	-0.24
1390.36	-0.24
1390.74	-0.32
1391.11	-0.32
1391.48	-0.12
1391.85	0.64
1392.23	0.64
1392.6	0.64
1392.97	0.68
1393.34	0.64
1393.72	0.08
1394.09	0.24
1394.46	0.4
1394.83	0.36
1395.21	0.32
1395.58	0.4
1395.95	0.28
1396.32	0.12
1396.69	0.12
1397.07	0.16
1397.44	0.08
1397.81	0.12
1398.18	0.24
1398.55	0.32
1398.93	1.32
1399.3	1.52
1399.67	1.44
1400.04	1.48
1400.41	1.72
1400.79	0.88
1401.16	0.72
1401.53	0.84
1401.9	0.72
1402.27	0.4
1402.65	0.44
1403.02	0.4
1403.39	0.36
1403.76	-0.08
1404.13	-6.66107e-18
1404.51	-0.24
1404.88	-0.24
1405.25	-0.16
1405.62	0.6
1405.99	0.56
1406.36	0.68
1406.74	0.68
1407.11	0.52
1407.48	0.16
1407.85	-1.08
1408.22	-0.96
1408.59	-0.8
1408.96	-0.8
1409.34	-0.04
1409.71	1.24
1410.08	1.32
1410.45	1.24
1410.82	1.28
1411.19	0.72
1411.56	0.76
1411.93	0.44
1412.31	0.36
1412.68	0.32
1413.05	0.28
1413.42	0.28
1413.79	0.28
1414.16	0.08
1414.53	0.08
1414.9	-0.2
1415.27	-0.24
1415.65	-0.16
1416.02	0.12
1416.39	0.12
1416.76	0.24
1417.13	0.32
1417.5	0.88
1417.87	0.8
1418.24	0.8
1418.61	0.8
1418.98	0.76
1419.35	0.12
1419.73	0.36
1420.1	0.36
1420.47	0.36
1420.84	0.36
1421.21	0.4
1421.58	0.16
1421.95	0.16
1422.32	0.16
1422.69	0.08
1423.06	0.08
1423.43	0.12
1423.8	0.36
1424.17	0.6
1424.54	0.6
1424.91	0.64
1425.28	0.6
1425.65	0.36
1426.02	0.12
1426.39	0.08
1426.76	-0.56
1427.14	-0.48
1427.51	-0.48
1427.88	-0.36
1428.25	-0.2
1428.62	0.36
1428.99	0.56
1429.36	0.56
1429.73	0.44
1430.1	0.52
1430.47	1.36
1430.84	1.08
1431.21	1.08
1431.58	1.4
1431.95	1.44
1432.32	0.6
1432.69	0.64
1433.06	0.76
1433.43	0.64
1433.8	0.36
1434.17	0.56
1434.54	1.08
1434.91	1.16
1435.28	1.12
1435.64	1.28
1436.01	0.52
1436.38	0.04
1436.75	0.16
1437.12	0.16
1437.49	0.12
1437.86	0.88
1438.23	1
1438.6	0.68
1438.97	0.88
1439.34	0.76
1439.71	0.64
1440.08	0.44
1440.45	0.44
1440.82	-0.32
1441.19	-0.12
1441.56	-0.12
1441.93	-0.04
1442.3	-0.04
1442.67	-1.2
1443.03	-1.36
1443.4	-1.36
1443.77	-1.4
1444.14	-1.4
1444.51	0.36
1444.88	0.32
1445.25	0.24
1445.62	0.44
1445.99	0.44
1446.36	0.48
1446.73	0.48
1447.09	0.48
1447.46	0.24
1447.83	0.24
1448.2	0.08
1448.57	-0.12
1448.94	-0.12
1449.31	-0.12
1449.68	-0.04
1450.05	0.2
1450.41	0.48
1450.78	0.08
1451.15	0.08
1451.52	5.55112e-17
1451.89	-0.32
1452.26	-0.36
1452.63	0.04
1453	0.2
1453.36	0.36
1453.73	0.64
1454.1	0.84
1454.47	1.16
1454.84	1
1455.21	0.84
1455.57	0.44
1455.94	0.24
1456.31	-0.08
1456.68	-0.04
1457.05	-0.04
1457.42	0.08
1457.78	0.2
1458.15	0.2
1458.52	0.36
1458.89	0.36
1459.26	0.52
1459.63	0.6
1459.99	0.88
1460.36	0.68
1460.73	0.68
1461.1	0.56
1461.47	0.4
1461.83	0.2
1462.2	0.28
1462.57	0.32
1462.94	0.28
1463.31	0.32
1463.67	0.24
1464.04	-0.04
1464.41	0.12
1464.78	-0.48
1465.15	-0.44
1465.51	0.04
1465.88	0.52
1466.25	0.36
1466.62	0.96
1466.98	0.8
1467.35	0.48
1467.72	0.2
1468.09	0.2
1468.46	0.2
1468.82	0.68
1469.19	0.52
1469.56	0.52
1469.93	0.6
1470.29	0.8
1470.66	0.32
1471.03	0.32
1471.4	0.48
1471.76	0.52
1472.13	0.32
1472.5	0.52
1472.86	0.56
1473.23	0.56
1473.6	0.4
1473.97	0.4
1474.33	0.32
1474.7	0.32
1475.07	0.16
1475.44	0.32
1475.8	0.2
1476.17	0.08
1476.54	0.44
1476.9	0.44
1477.27	0.6
1477.64	0.84
1478	0.84
1478.37	0.8
1478.74	0.8
1479.11	0.56
1479.47	0.44
1479.84	0.44
1480.21	0.08
1480.57	0.28
1480.94	0.24
1481.31	0.24
1481.67	0.28
1482.04	0.56
1482.41	0.36
1482.77	0.64
1483.14	0.96
1483.51	1.04
1483.87	0.76
1484.24	0.76
1484.61	0.64
1484.97	0.44
1485.34	0.56
1485.71	-0.44
1486.07	-0.36
1486.44	-0.56
1486.81	-0.68
1487.17	-0.76
1487.54	0.24
1487.9	0.24
1488.27	0.44
1488.64	0.32
1489	0.32
1489.37	0.52
1489.74	0.52
1490.1	0.56
1490.47	0.96
1490.83	1
1491.2	1.24
1491.57	1.28
1491.93	1.2
1492.3	0.92
1492.66	0.88
1493.03	0.44
1493.4	0.32
1493.76	0.32
1494.13	0.36
1494.49	0.56
1494.86	1
1495.23	1.08
1495.59	1.04
1495.96	-0.32
1496.32	-0.64
1496.69	-1.08
1497.06	-0.84
1497.42	-1.72
1497.79	-0.2
1498.15	0.12
1498.52	0.48
1498.88	0.16
1499.25	0.92
1499.62	0.52
1499.98	0.24
1500.35	-0.04
1500.71	-0.04
1501.08	1.74861e-17
1501.44	0.4
1501.81	0.32
1502.17	0.24
1502.54	0.24
1502.9	0.2
1503.27	0
1503.64	0.16
1504	0.16
1504.37	0.2
1504.73	0.2
1505.1	0.2
1505.46	0.08
1505.83	0.12
1506.19	0.12
1506.56	0.12
1506.92	0.12
1507.29	0.52
1507.65	0.64
1508.02	0.6
1508.38	0.68
1508.75	0.68
1509.11	0.84
1509.48	0.72
1509.84	0.76
1510.21	0.88
1510.57	0.88
1510.94	0.52
1511.3	0.6
1511.67	0.56
1512.03	0.52
1512.4	0.72
1512.76	0.48
1513.13	-0.4
1513.49	-0.6
1513.85	-0.6
1514.22	-0.8
1514.58	-0.72
1514.95	0.04
1515.31	0.28
1515.68	0.12
1516.04	0.32
1516.41	0.4
1516.77	0.48
1517.14	0.44
1517.5	0.44
1517.86	0.6
1518.23	0.52
1518.59	0.64
1518.96	0.64
1519.32	0.76
1519.69	0.6
1520.05	0.84
1520.41	0.88
1520.78	0.88
1521.14	0.8
1521.51	1.04
1521.87	0.72
1522.24	0.56
1522.6	0.76
1522.96	0.84
1523.33	0.56
1523.69	0.64
1524.06	0.68
1524.42	0.48
1524.78	0.36
1525.15	0.2
1525.51	0.12
1525.88	0.12
1526.24	0.44
1526.6	0.48
1526.97	0.48
1527.33	0.88
1527.69	0.76
1528.06	0.44
1528.42	0.68
1528.79	0.68
1529.15	-0.52
1529.51	-0.52
1529.88	-0.52
1530.24	-0.76
1530.6	-0.52
1530.97	0.28
1531.33	0.4
1531.69	0.4
1532.06	0.84
1532.42	0.64
1532.78	0.64
1533.15	0.72
1533.51	0.96
1533.87	0.52
1534.24	0.6
1534.6	0.6
1534.96	0.4
1535.33	0.4
1535.69	0.36
1536.05	0.52
1536.42	0.8
1536.78	0.8
1537.14	0.84
1537.51	0.84
1537.87	0.56
1538.23	0.28
1538.6	0.76
1538.96	0.48
1539.32	0.68
1539.68	0.68
1540.05	1.08
1540.41	0.8
1540.77	0.8
1541.14	0.68
1541.5	0.68
1541.86	0.28
1542.23	0.28
1542.59	0.52
1542.95	0.68
1543.31	0.72
1543.68	0.92
1544.04	0.72
1544.4	0.56
1544.76	0.32
1545.13	0.52
1545.49	0.36
1545.85	0.36
1546.21	0.28
1546.58	0.36
1546.94	0.12
1547.3	0.08
1547.66	0.28
1548.03	0.52
1548.39	0.44
1548.75	0.52
1549.11	0.52
1549.48	0.32
1549.84	0.08
1550.2	0.08
1550.56	0.16
1550.93	0.32
1551.29	0.4
1551.65	0.4
1552.01	0.4
1552.37	0.24
1552.74	0.16
1553.1	0.16
1553.46	0.36
1553.82	0.4
1554.18	0.44
1554.55	0.36
1554.91	0.28
1555.27	0.12
1555.63	0.08
1555.99	0.2
1556.36	0.2
1556.72	-1.4
1557.08	-1.4
1557.44	-1.32
1557.8	-1.48
1558.17	-1.36
1558.53	0.24
1558.89	0.2
1559.25	0.12
1559.61	0.24
1559.97	0.12
1560.34	0.12
1560.7	0.12
1561.06	0.16
1561.42	0.04
1561.78	0.04
1562.14	-0.36
1562.5	-0.36
1562.87	-0.4
1563.23	-0.36
1563.59	-0.68
1563.95	-0.2
1564.31	-0.12
1564.67	-0.08
1565.03	-0.12
1565.4	0.32
1565.76	0.4
1566.12	0.32
1566.48	0.28
1566.84	0.32
1567.2	0.44
1567.56	0.8
1567.92	0.92
1568.29	0.92
1568.65	1.32
1569.01	1.08
1569.37	0.16
1569.73	0.2
1570.09	0.4
1570.45	0.04
1570.81	0.04
1571.17	0.44
1571.53	0.28
1571.89	0.12
1572.26	0.04
1572.62	0.52
1572.98	0.52
1573.34	0.52
1573.7	0.48
1574.06	0.6
1574.42	0.4
1574.78	0.36
1575.14	0.36
1575.5	0.6
1575.86	-0.16
1576.22	-0.28
1576.58	-0.12
1576.94	0.04
1577.3	-0.2
1577.67	0.44
1578.03	0.48
1578.39	0.56
1578.75	0.96
1579.11	0.96
1579.47	1
1579.83	0.92
1580.19	0.72
1580.55	0.16
1580.91	0.52
1581.27	0.6
1581.63	0.96
1581.99	1.04
1582.35	1.24
1582.71	0.88
1583.07	0.76
1583.43	1.16
1583.79	1.08
1584.15	1.24
1584.51	1.36
1584.87	1.6
1585.23	0.72
1585.59	0.84
1585.95	0.48
1586.31	0.36
1586.67	0.16
1587.03	0.28
1587.39	0.16
1587.75	0.28
1588.11	0.52
1588.47	0.52
1588.83	0.44
1589.19	0.6
1589.55	0.48
1589.91	0.36
1590.27	0.72
1590.63	0.68
1590.99	0.68
1591.35	0.68
1591.71	0.56
1592.07	0.28
1592.42	0.32
1592.78	0.76
1593.14	0.76
1593.5	1
1593.86	1.2
1594.22	1.36
1594.58	0.84
1594.94	0.84
1595.3	0.76
1595.66	0.44
1596.02	0.36
1596.38	0.32
1596.74	0.72
1597.1	0.56
1597.46	0.56
1597.81	0.48
1598.17	0.44
1598.53	0.08
1598.89	0.12
1599.25	0.12
1599.61	0.08
1599.97	0.08
1600.33	0.04
1600.69	0.08
1601.05	0.16
1601.4	0.32
1601.76	-0.08
1602.12	-0.08
1602.48	4.2189e-17
1602.84	-0.08
1603.2	-0.24
1603.56	0.16
1603.92	0.2
1604.28	0.04
1604.63	0.04
1604.99	0.12
1605.35	0.12
1605.71	0.2
1606.07	0.2
1606.43	0.32
1606.79	0.28
1607.14	0.36
1607.5	0.52
1607.86	0.56
1608.22	0.44
1608.58	0.4
1608.94	0.32
1609.29	0.04
1609.65	-0.12
1610.01	-0.08
1610.37	0.12
1610.73	0.12
1611.09	0.24
1611.44	0.4
1611.8	0.52
1612.16	0.36
1612.52	0.48
1612.88	0.36
1613.24	0.4
1613.59	0.24
1613.95	0.2
1614.31	0.2
1614.67	0.64
1615.03	0.96
1615.38	1.16
1615.74	1.28
1616.1	1.68
1616.46	1.56
1616.82	1.2
1617.17	1
1617.53	0.88
1617.89	0.68
1618.25	0.4
1618.6	0.36
1618.96	0.36
1619.32	0.52
1619.68	0.52
1620.04	0.88
1620.39	0.72
1620.75	0.72
1621.11	0.56
1621.47	0.32
1621.82	0.04
1622.18	0.2
1622.54	0.28
1622.9	0.28
1623.25	-0.76
1623.61	-0.8
1623.97	-0.68
1624.33	-0.68
1624.68	-0.88
1625.04	0.08
1625.4	0.08
1625.75	-0.64
1626.11	-0.4
1626.47	-0.16
1626.83	4.2189e-17
1627.18	0.04
1627.54	0.64
1627.9	0.36
1628.26	0.36
1628.61	0.4
1628.97	0.48
1629.33	0.48
1629.68	0.64
1630.04	0.68
1630.4	-0.12
1630.75	-0.28
1631.11	-0.12
1631.47	-0.48
1631.83	-0.52
1632.18	0.12
1632.54	0.2
1632.9	0.32
1633.25	0.48
1633.61	0.44
1633.97	0.4
1634.32	0.28
1634.68	0.16
1635.04	0.24
1635.39	0.24
1635.75	0.24
1636.11	0.4
1636.46	0.28
1636.82	0.2
1637.18	0.2
1637.53	0.2
1637.89	0.12
1638.25	0.08
1638.6	0.32
1638.96	0.32
1639.31	0.44
1639.67	0.36
1640.03	0.48
1640.38	0.24
1640.74	0.4
1641.1	0.28
1641.45	0.28
1641.81	0.2
1642.16	0.24
1642.52	0.08
1642.88	0.24
1643.23	-0.36
1643.59	-0.4
1643.95	0.04
1644.3	0.04
1644.66	-0.04
1645.01	0.8
1645.37	0.8
1645.73	0.36
1646.08	0.48
1646.44	0.4
1646.79	0.24
1647.15	0.24
1647.51	0.32
1647.86	0.2
1648.22	0.36
1648.57	-0.52
1648.93	-0.48
1649.28	-0.52
1649.64	-0.52
1650	-0.68
1650.35	0.28
1650.71	0.48
1651.06	0.44
1651.42	0.68
1651.77	0.48
1652.13	0.32
1652.48	0.24
1652.84	0.28
1653.2	0.16
1653.55	0.6
1653.91	0.76
1654.26	0.6
1654.62	0.52
1654.97	0.4
1655.33	0.16
1655.68	0
1656.04	0.36
1656.39	0.56
1656.75	0.56
1657.1	0.56
1657.46	1.16
1657.81	0.84
1658.17	0.8
1658.52	0.8
1658.88	1.12
1659.23	0.72
1659.59	0.96
1659.94	0.8
1660.3	1
1660.65	0.68
1661.01	0.48
1661.36	0.2
1661.72	0.32
1662.07	0.12
1662.43	0.52
1662.78	0.52
1663.14	0.52
1663.49	0.52
1663.85	0.76
1664.2	0.36
1664.56	0.56
1664.91	-1.24
1665.27	-1.12
1665.62	-1.16
1665.98	-0.96
1666.33	-1.08
1666.69	0.72
1667.04	0.48
1667.39	0.32
1667.75	0.12
1668.1	0.08
1668.46	0.12
1668.81	0.12
1669.17	0.12
1669.52	0.36
1669.88	0.32
1670.23	0.32
1670.58	0.6
1670.94	0.56
1671.29	0.44
1671.65	0.6
1672	0.76
1672.36	0.64
1672.71	0.72
1673.06	0.68
1673.42	0.72
1673.77	0.8
1674.13	0.76
1674.48	0.8
1674.83	0.84
1675.19	0.76
1675.54	1.08
1675.9	1.44
1676.25	1.6
1676.6	1.48
1676.96	1.36
1677.31	0.8
1677.67	0.32
1678.02	0.2
1678.37	0.32
1678.73	0.32
1679.08	0.44
1679.43	0.44
1679.79	0.28
1680.14	0.28
1680.5	0.16
1680.85	0.12
1681.2	0.48
1681.56	0.64
1681.91	0.52
1682.26	1.6
1682.62	1.68
1682.97	2.2
1683.32	2.04
1683.68	2.24
1684.03	1.76
1684.38	1.96
1684.74	1.52
1685.09	1.52
1685.44	1.28
1685.8	1
1686.15	0.64
1686.5	1.04
1686.86	1.72
1687.21	2.16
1687.56	2.8
1687.92	2.84
1688.27	2.12
1688.62	1.56
1688.98	1.48
1689.33	0.84
1689.68	0.88
1690.03	1.24
1690.39	1.44
1690.74	1.64
1691.09	1.84
1691.45	1.48
1691.8	1
1692.15	1
1692.5	0.48
1692.86	0.48
1693.21	0.76
1693.56	1.12
1693.92	0.92
1694.27	0.36
1694.62	0.24
1694.97	0.2
1695.33	-0.16
1695.68	0.08
1696.03	0.72
1696.38	0.68
1696.74	0.96
1697.09	0.92
1697.44	0.6
1697.79	0.84
1698.15	1.12
1698.5	1
1698.85	1.16
1699.2	0.52
1699.56	0.28
1699.91	0.08
1700.26	0.52
1700.61	1.04
1700.97	2.4
1701.32	2.72
1701.67	3.04
1702.02	2.56
1702.37	2.76
1702.73	2.32
1703.08	1.96
1703.43	1.6
1703.78	1.64
1704.13	0.8
1704.49	0.48
1704.84	0.84
1705.19	0.72
1705.54	0.72
1705.89	0.88
1706.25	1.24
1706.6	1.12
1706.95	1.28
1707.3	1.28
1707.65	1.12
1708.01	1.16
1708.36	1.16
1708.71	0.84
1709.06	0.72
1709.41	0.8
1709.76	0.88
1710.12	0.92
1710.47	1
1710.82	0.96
1711.17	0.96
1711.52	0.76
1711.87	0.6
1712.23	0.76
1712.58	1.2
1712.93	1.16
1713.28	1.16
1713.63	1.04
1713.98	0.88
1714.33	0.44
1714.69	1.44
1715.04	1.16
1715.39	1.12
1715.74	1.04
1716.09	1.04
1716.44	0
1716.79	0.36
1717.14	0.36
1717.5	0.4
1717.85	0.4
1718.2	0.4
1718.55	0.2
1718.9	0.28
1719.25	0.32
1719.6	0.32
1719.95	0.32
1720.3	0.16
1720.65	0.36
1721.01	0.84
1721.36	0.84
1721.71	0.96
1722.06	0.92
1722.41	0.44
1722.76	-4.88501e-17
1723.11	0.04
1723.46	0.44
1723.81	0.84
1724.16	1.48
1724.51	1.36
1724.86	1.72
1725.21	1.2
1725.56	0.84
1725.92	0.4
1726.27	0.76
1726.62	0.52
1726.97	0.52
1727.32	0.36
1727.67	0.72
1728.02	0.56
1728.37	0.8
1728.72	0.8
1729.07	1.12
1729.42	0.88
1729.77	0.68
1730.12	0.36
1730.47	0.48
1730.82	1.04
1731.17	1.08
1731.52	1.4
1731.87	1.84
1732.22	2.2
1732.57	1.56
1732.92	1.8
1733.27	1.72
1733.62	1.28
1733.97	0.92
1734.32	0.84
1734.67	0.6
1735.02	0.44
1735.37	0.88
1735.72	1.92
1736.07	2.04
1736.42	3.08
1736.77	3.96
1737.12	3.68
1737.47	2.76
1737.82	3.24
1738.17	2.64
1738.52	2.16
1738.87	2.44
1739.22	2.72
1739.57	2.92
1739.92	3
1740.27	3.64
1740.62	3.24
1740.97	3.92
1741.32	3.56
1741.67	3.2
1742.02	3.84
1742.37	5.44
1742.72	5.44
1743.06	7.28
1743.41	8.84
1743.76	8.44
1744.11	6.72
1744.46	6.28
1744.81	5.8
1745.16	5.28
1745.51	6.64
1745.86	8.36
1746.21	9.32
1746.56	10
1746.91	10.2
1747.26	10.36
1747.6	10.84
1747.95	11.72
1748.3	12
1748.65	12.92
1749	12.6
1749.35	12.96
1749.7	14.84
1750.05	15.28
1750.4	16.72
1750.75	17.28
1751.09	17.6
1751.44	17.4
1751.79	18.64
1752.14	18.08
1752.49	19.64
1752.84	21.32
1753.19	21.8
1753.54	20.88
1753.88	21.48
1754.23	22.96
1754.58	23.68
1754.93	24.6
1755.28	26
1755.63	26.28
1755.98	24.16
1756.32	25.16
1756.67	26.64
1757.02	26.08
1757.37	27.24
1757.72	29.08
1758.07	27.44
1758.42	27.04
1758.76	30.12
1759.11	29.2
1759.46	28.96
1759.81	31.24
1760.16	30.32
1760.5	27.96
1760.85	29.12
1761.2	29.96
1761.55	28.96
1761.9	28.08
1762.25	29.16
1762.59	28.68
1762.94	28
1763.29	28.36
1763.64	28.36
1763.99	29.52
1764.33	29.96
1764.68	28.88
1765.03	28
1765.38	27.72
1765.73	25.68
1766.07	25.68
1766.42	24.88
1766.77	25.32
1767.12	25.76
1767.46	26.48
1767.81	26.64
1768.16	27.4
1768.51	25.76
1768.85	26.16
1769.2	25.4
1769.55	25.16
1769.9	24.52
1770.25	25
1770.59	25.24
1770.94	24.96
1771.29	23.68
1771.64	24.32
1771.98	24.72
1772.33	23.16
1772.68	22.36
1773.02	22.16
1773.37	20.88
1773.72	20.44
1774.07	21.52
1774.41	21.44
1774.76	22.48
1775.11	23.08
1775.46	22.72
1775.8	21.52
1776.15	21.8
1776.5	20.76
1776.84	21.68
1777.19	20.64
1777.54	19.4
1777.89	18.72
1778.23	17.44
1778.58	16.68
1778.93	17.2
1779.27	18.4
1779.62	18.32
1779.97	19.64
1780.31	18.28
1780.66	17.52
1781.01	16.2
1781.35	14.4
1781.7	12.8
1782.05	13.04
1782.39	11.92
1782.74	11.56
1783.09	10.8
1783.43	9.84
1783.78	8.52
1784.13	9.48
1784.47	8.76
1784.82	9.48
1785.17	11.16
1785.51	13.2
1785.86	12.6
1786.21	12.36
1786.55	13
1786.9	11.72
1787.25	9.16
1787.59	8.68
1787.94	9.48
1788.29	9.36
1788.63	10
1788.98	10.04
1789.32	9.68
1789.67	9.88
1790.02	12.84
1790.36	15.12
1790.71	17.8
1791.06	18.68
1791.4	18.76
1791.75	17.52
1792.09	16.6
1792.44	14.68
1792.79	12.36
1793.13	13.08
1793.48	12.84
1793.82	11.16
1794.17	9.32
1794.52	11.04
1794.86	10.48
1795.21	8.64
1795.55	9.2
1795.9	19.24
1796.24	29.84
1796.59	32.88
1796.94	35.32
1797.28	37.84
1797.63	30.76
1797.97	23.68
1798.32	24.36
1798.66	30
1799.01	31.84
1799.36	33.04
1799.7	37.32
1800.05	37.2
1800.39	32.8
1800.74	41.04
1801.08	51.88
1801.43	51.64
1801.77	53.52
1802.12	56.08
1802.46	50.64
1802.81	43.84
1803.15	42.16
1803.5	40.52
1803.85	38.32
1804.19	38.8
1804.54	45.12
1804.88	49.52
1805.23	53.92
1805.57	68.12
1805.92	78.44
1806.26	79.08
1806.61	80.84
1806.95	90.72
1807.3	98.6
1807.64	101.8
1807.99	101.6
1808.33	100
1808.68	92.32
1809.02	91.4
1809.37	102.88
1809.71	112.64
1810.06	119.24
1810.4	123.48
1810.75	115.52
1811.09	113.2
1811.43	129.64
1811.78	146.08
1812.12	162.48
1812.47	170.32
1812.81	163.24
1813.16	151.76
1813.5	142.28
1813.85	132.12
1814.19	128.64
1814.54	125.2
1814.88	113.8
1815.23	106.92
1815.57	97.92
1815.91	90.32
1816.26	100.76
1816.6	128.88
1816.95	146.4
1817.29	168.52
1817.64	195.84
1817.98	209.24
1818.32	213.56
1818.67	223.24
1819.01	224.68
1819.36	219.2
1819.7	204.6
1820.05	190.48
1820.39	189.24
1820.73	184.84
1821.08	179
1821.42	184.68
1821.77	178.24
1822.11	158.36
1822.45	164.44
1822.8	173.36
1823.14	164.2
1823.49	186
1823.83	229.28
1824.17	245.68
1824.52	256.92
1824.86	273.44
1825.2	259.88
1825.55	228.68
1825.89	203.88
1826.24	197.12
1826.58	218.2
1826.92	237.64
1827.27	248.4
1827.61	268.04
1827.95	267.68
1828.3	239.16
1828.64	218.48
1828.98	202.08
1829.33	188.24
1829.67	216.56
1830.02	244.8
1830.36	262.48
1830.7	300
1831.05	328.28
1831.39	307.56
1831.73	297.32
1832.08	294.64
1832.42	271.16
1832.76	253.8
1833.1	249.56
1833.45	235.4
1833.79	225.84
1834.13	229.84
1834.48	230.32
1834.82	234.4
1835.16	244.52
1835.51	244.88
1835.85	241.96
1836.19	237
1836.54	219.16
1836.88	203.72
1837.22	192.52
1837.56	183.2
1837.91	193.6
1838.25	229.16
1838.59	255.92
1838.94	271.96
1839.28	282.24
1839.62	272.32
1839.96	251.24
1840.31	229.56
1840.65	214.68
1840.99	219.4
1841.34	261.4
1841.68	290.52
1842.02	312.48
1842.36	340.36
1842.71	328.36
1843.05	281.88
1843.39	278
1843.73	298.24
1844.08	312.28
1844.42	351.32
1844.76	384.12
1845.1	366.8
1845.45	338.64
1845.79	326.76
1846.13	310.32
1846.47	297.44
1846.81	288.72
1847.16	287.56
1847.5	298.56
1847.84	314.12
1848.18	323.56
1848.53	340.4
1848.87	347.24
1849.21	330.96
1849.55	307.08
1849.89	293.16
1850.24	278.76
1850.58	269.64
1850.92	263.48
1851.26	258.68
1851.6	255.76
1851.95	256.84
1852.29	251.68
1852.63	246.4
1852.97	241
1853.31	228.16
1853.66	215.04
1854	204.28
1854.34	199.6
1854.68	217.04
1855.02	232.64
1855.36	235.96
1855.71	244.36
1856.05	248.8
1856.39	225.2
1856.73	207.68
1857.07	206.44
1857.41	202.4
1857.76	193.72
1858.1	195.16
1858.44	190.32
1858.78	182.72
1859.12	174.96
1859.46	164.24
1859.8	151.64
1860.15	144.6
1860.49	149
1860.83	164.68
1861.17	179.48
1861.51	182.56
1861.85	186.84
1862.19	177.84
1862.53	162.16
1862.88	154.04
1863.22	155.36
1863.56	151.64
1863.9	149.4
1864.24	152.4
1864.58	146.12
1864.92	140.76
1865.26	140.76
1865.6	136.28
1865.94	121.6
1866.29	114.84
1866.63	106.32
1866.97	97
1867.31	91.24
1867.65	89.96
1867.99	92.32
1868.33	92.12
1868.67	88.88
1869.01	87.64
1869.35	90.28
1869.69	101.84
1870.03	112.28
1870.37	124.68
1870.72	135.6
1871.06	134.2
1871.4	114
1871.74	99.36
1872.08	86.96
1872.42	80.56
1872.76	86.92
1873.1	93.92
1873.44	96.72
1873.78	93
1874.12	84.48
1874.46	69.2
1874.8	68.76
1875.14	77.44
1875.48	84.16
1875.82	88.96
1876.16	93.84
1876.5	91.76
1876.84	83.72
1877.18	79.88
1877.52	74.64
1877.86	68.68
1878.2	59.8
1878.54	50.96
1878.88	45.12
1879.22	42.32
1879.56	37.88
1879.9	34.84
1880.24	34.6
1880.58	33.8
1880.92	35.08
1881.26	37.44
1881.6	35.92
1881.94	33
1882.28	31.52
1882.62	29.2
1882.96	32.52
1883.3	40.96
1883.64	44.04
1883.98	43.8
1884.32	43.2
1884.66	34.52
1885	23.52
1885.34	20.04
1885.68	20.48
1886.02	17.84
1886.36	17.44
1886.7	17.48
1887.04	15.88
1887.38	12.36
1887.72	9.8
1888.06	7.64
1888.39	7.88
1888.73	7.76
1889.07	10.92
1889.41	17.72
1889.75	19
1890.09	23.4
1890.43	27.76
1890.77	26.96
1891.11	21.12
1891.45	20.2
1891.79	13.44
1892.13	7.72
1892.47	5.08
1892.8	4.72
1893.14	5.6
1893.48	7
1893.82	9.28
1894.16	9.72
1894.5	9.52
1894.84	8.48
1895.18	8.28
1895.52	6.12
1895.86	5.96
1896.19	6.6
1896.53	6.84
1896.87	5.96
1897.21	5.44
1897.55	5.24
1897.89	4.96
1898.23	7.88
1898.57	9.4
1898.9	10.08
1899.24	9.96
1899.58	9.28
1899.92	6.28
1900.26	4.96
1900.6	5.2
1900.94	5.16
1901.27	6.56
1901.61	6.4
1901.95	7.6
1902.29	7.32
1902.63	8.08
1902.97	7.72
1903.3	9.48
1903.64	9.16
1903.98	9.08
1904.32	9.36
1904.66	8.68
1905	8.72
1905.33	9.12
1905.67	10.24
1906.01	12.12
1906.35	13.8
1906.69	14
1907.02	15.08
1907.36	14.96
1907.7	12.44
1908.04	12.2
1908.38	13.36
1908.71	12.84
1909.05	14.16
1909.39	16.76
1909.73	16.56
1910.07	14.88
1910.4	15.12
1910.74	14.52
1911.08	13.72
1911.42	16.36
1911.76	18.64
1912.09	18.88
1912.43	20.24
1912.77	21.2
1913.11	20.64
1913.44	19.4
1913.78	20.12
1914.12	19.6
1914.46	20.88
1914.79	22.28
1915.13	24.68
1915.47	25.24
1915.81	25.88
1916.14	24.24
1916.48	24.96
1916.82	25.28
1917.16	25.12
1917.49	27.28
1917.83	30.52
1918.17	29.88
1918.5	29.44
1918.84	30.8
1919.18	30.24
1919.52	31.76
1919.85	33.72
1920.19	35.6
1920.53	37.68
1920.87	39.64
1921.2	40.44
1921.54	41.16
1921.88	42.44
1922.21	44.04
1922.55	45.44
1922.89	46.4
1923.22	47.64
1923.56	48.44
1923.9	47.12
1924.23	48.48
1924.57	48.6
1924.91	49.56
1925.25	50.44
1925.58	53.72
1925.92	52.8
1926.26	54.96
1926.59	53.96
1926.93	54
1927.27	52.24
1927.6	53.2
1927.94	52.8
1928.28	55
1928.61	54.72
1928.95	56
1929.29	57.56
1929.62	58.4
1929.96	59.6
1930.29	62.24
1930.63	63.24
1930.97	63.6
1931.3	62.52
1931.64	60.72
1931.98	60.04
1932.31	59.68
1932.65	61
1932.99	61.88
1933.32	63.72
1933.66	64.32
1933.99	65
1934.33	63.56
1934.67	63.52
1935	63.28
1935.34	62.68
1935.67	63.48
1936.01	64.04
1936.35	63.12
1936.68	63.68
1937.02	63.4
1937.35	63.92
1937.69	65.6
1938.03	67.84
1938.36	66.92
1938.7	69.32
1939.03	68.52
1939.37	68.92
1939.7	68.84
1940.04	70
1940.38	69.44
1940.71	70.88
1941.05	69.12
1941.38	68.64
1941.72	68.92
1942.05	68.96
1942.39	69.24
1942.73	70.24
1943.06	72.76
1943.4	73.72
1943.73	73.96
1944.07	74.36
1944.4	74.16
1944.74	72.48
1945.07	72.28
1945.41	73.6
1945.74	72.2
1946.08	73.04
1946.42	73.92
1946.75	73.12
1947.09	71.64
1947.42	73.28
1947.76	72.6
1948.09	72.84
1948.43	72.12
1948.76	72.28
1949.1	70.92
1949.43	70.24
1949.77	67.64
1950.1	68.44
1950.44	68.24
1950.77	69.52
1951.11	69.28
1951.44	71.4
1951.78	70.84
1952.11	70.6
1952.45	68.48
1952.78	69
1953.12	66.44
1953.45	64.6
1953.79	63.56
1954.12	62.68
1954.46	61.56
1954.79	62.08
1955.12	62.8
1955.46	63.12
1955.79	61.88
1956.13	60.6
1956.46	58.92
1956.8	57.24
1957.13	55.32
1957.47	56.08
1957.8	56.04
1958.14	55.84
1958.47	56.12
1958.8	55.88
1959.14	54.72
1959.47	53.56
1959.81	50.88
1960.14	49.44
1960.48	49.08
1960.81	48.24
1961.14	47.68
1961.48	49
1961.81	47.64
1962.15	47
1962.48	47.04
1962.82	45.76
1963.15	43.32
1963.48	42.24
1963.82	42.12
1964.15	40.2
1964.49	39.52
1964.82	39.28
1965.15	39.2
1965.49	36
1965.82	37.12
1966.16	36.76
1966.49	37.24
1966.82	35.36
1967.16	36.12
1967.49	32.28
1967.83	30.24
1968.16	28.92
1968.49	29.08
1968.83	27.2
1969.16	27.52
1969.49	28.32
1969.83	27.36
1970.16	27.24
1970.49	25.24
1970.83	24.8
1971.16	22.84
1971.5	21.8
1971.83	20.16
1972.16	20.08
1972.5	17.24
1972.83	15.36
1973.16	15.4
1973.5	14.92
1973.83	13.84
1974.16	14
1974.5	14.08
1974.83	12.6
1975.16	10.08
1975.5	9.64
1975.83	9.92
1976.16	8.72
1976.49	7.6
1976.83	7.96
1977.16	6.96
1977.49	5.28
1977.83	4.56
1978.16	3.76
1978.49	3.48
1978.83	3.64
1979.16	3.44
1979.49	3.68
1979.83	3.36
1980.16	2.8
1980.49	2.6
1980.82	2.6
1981.16	2
1981.49	1.8
1981.82	1.88
1982.15	1.72
1982.49	1.48
1982.82	1.88
1983.15	1.84
1983.49	1.76
1983.82	1.36
1984.15	1.36
1984.48	1.64
1984.82	1.96
1985.15	1.84
1985.48	2.16
1985.81	1.76
1986.15	1.44
1986.48	1.12
1986.81	1.24
1987.14	1.04
1987.48	1.64
1987.81	1.32
1988.14	1.12
1988.47	1.04
1988.81	1.48
1989.14	1
1989.47	1.08
1989.8	1.08
1990.13	1
1990.47	0.52
1990.8	0.4
1991.13	0.24
1991.46	0.36
1991.79	-0.08
1992.13	-1
1992.46	-0.68
1992.79	-0.6
1993.12	-0.72
1993.45	-0.88
1993.79	-0.08
1994.12	-0.24
1994.45	-0.4
1994.78	-0.16
1995.11	0.56
1995.45	0.56
1995.78	0.4
1996.11	0.84
1996.44	0.72
1996.77	0.88
1997.1	1.04
1997.44	1.52
1997.77	1.44
1998.1	1.32
1998.43	1.44
1998.76	1.4
1999.09	1.72
1999.43	0.56
1999.76	0.88
2000.09	1.52
2000.42	1.56
2000.75	-0.16
2001.08	2.16
2001.41	2.24
2001.75	2.08
2002.08	2.88
2002.41	4.2
2002.74	3.56
2003.07	3.84
2003.4	4.6
2003.73	4.2
2004.06	5.2
2004.4	7
2004.73	7.68
2005.06	8.04
2005.39	9.48
2005.72	11.16
2006.05	10.6
2006.38	12.44
2006.71	13.68
2007.04	13.36
2007.37	12.04
2007.71	12.44
2008.04	12.04
2008.37	11.36
2008.7	11.32
2009.03	12.28
2009.36	12.24
2009.69	12.04
2010.02	12.96
2010.35	14
2010.68	14.52
2011.01	15.52
2011.34	16.12
2011.67	15.64
2012.01	15.68
2012.34	15.28
2012.67	14.32
2013	14.16
2013.33	14.72
2013.66	16.76
2013.99	17.32
2014.32	18.6
2014.65	19.96
2014.98	20.48
2015.31	18.2
2015.64	19.6
2015.97	19.84
2016.3	17.68
2016.63	17.88
2016.96	18.92
2017.29	18.04
2017.62	17.64
2017.95	18.12
2018.28	17.52
2018.61	18.36
2018.94	17.6
2019.27	17.68
2019.6	16.76
2019.93	16.48
2020.26	14.68
2020.59	14.96
2020.92	14
2021.25	15.56
2021.58	15.2
2021.91	14.84
2022.24	14.2
2022.57	13.72
2022.9	11.88
2023.23	11.76
2023.56	13.36
2023.89	13.36
2024.22	14.76
2024.55	15.24
2024.88	15.08
2025.21	14.44
2025.54	13.8
2025.87	11.72
2026.2	11.72
2026.53	10.08
2026.86	10
2027.19	10.36
2027.52	10.04
2027.85	10.52
2028.18	11.96
2028.51	10.64
2028.84	9
2029.16	9.84
2029.49	9.24
2029.82	7.76
2030.15	7.76
2030.48	8.4
2030.81	7.48
2031.14	6.6
2031.47	7.2
2031.8	6.36
2032.13	5.8
2032.46	4.96
2032.79	5.12
2033.12	4.84
2033.44	4.56
2033.77	4.2
2034.1	4.4
2034.43	4.04
2034.76	2.68
2035.09	2.52
2035.42	2.28
2035.75	2.2
2036.08	2.36
2036.41	3
2036.73	3.2
2037.06	3.12
2037.39	2.8
2037.72	2.24
2038.05	1.68
2038.38	1.64
2038.71	2
2039.04	2.16
2039.36	2.08
2039.69	2.48
2040.02	1.64
2040.35	1.52
2040.68	1.6
2041.01	1.68
2041.34	1.44
2041.66	1.92
2041.99	2
2042.32	1.84
2042.65	1.52
2042.98	1.52
2043.31	1.24
2043.63	0.88
2043.96	0.6
2044.29	1.6
2044.62	1.76
2044.95	2.12
2045.28	1.88
2045.6	2.32
2045.93	1.28
2046.26	0.84
2046.59	0.56
2046.92	0.56
2047.24	0.28
2047.57	0.28
2047.9	0.28
2048.23	0.64
2048.56	0.64
2048.88	0.76
2049.21	0.76
2049.54	1.08
2049.87	0.64
2050.2	0.64
2050.52	0.64
2050.85	0.68
2051.18	0.36
2051.51	0.68
2051.83	0.96
2052.16	0.92
2052.49	1
2052.82	1
2053.15	0.68
2053.47	0.96
2053.8	0.72
2054.13	0.72
2054.46	0.72
2054.78	0.72
2055.11	0.16
2055.44	-0.04
2055.77	-0.04
2056.09	-0.04
2056.42	-0.04
2056.75	0.04
2057.08	0.6
2057.4	1.04
2057.73	1.28
2058.06	1.28
2058.38	1.68
2058.71	1.48
2059.04	1.04
2059.37	1.32
2059.69	1.32
2060.02	1
2060.35	1.32
2060.67	1.44
2061	1.04
2061.33	0.84
2061.66	1.28
2061.98	0.84
2062.31	1.12
2062.64	1.72
2062.96	2.08
2063.29	1.56
2063.62	1.68
2063.94	1.36
2064.27	0.84
2064.6	0.28
2064.92	1.04
2065.25	1.52
2065.58	1.52
2065.91	1.92
2066.23	2.76
2066.56	1.96
2066.89	1.72
2067.21	1.6
2067.54	1.24
2067.87	1.24
2068.19	1.32
2068.52	1
2068.84	0.92
2069.17	0.96
2069.5	0.88
2069.82	0.96
2070.15	0.92
2070.48	1.28
2070.8	1.32
2071.13	1.04
2071.46	0.92
2071.78	1.16
2072.11	1.08
2072.43	1.12
2072.76	1.8
2073.09	1.76
2073.41	1.88
2073.74	1.56
2074.07	1.56
2074.39	1.16
2074.72	1.2
2075.04	2
2075.37	2.32
2075.7	2.16
2076.02	1.84
2076.35	2.52
2076.67	1.88
2077	1.84
2077.33	1.64
2077.65	2.04
2077.98	1.4
2078.3	1.2
2078.63	1.32
2078.95	1.44
2079.28	1.28
2079.61	0.84
2079.93	0.52
2080.26	0.16
2080.58	0.12
2080.91	-0.16
2081.23	0.32
2081.56	0.28
2081.89	0.44
2082.21	0.48
2082.54	0.52
2082.86	0.68
2083.19	0.76
2083.51	0.84
2083.84	0.96
2084.16	0.92
2084.49	0.6
2084.81	0.52
2085.14	0.36
2085.46	0.12
2085.79	0.12
2086.12	0.12
2086.44	0.32
2086.77	0.2
2087.09	0.2
2087.42	0.28
2087.74	0.28
2088.07	0.12
2088.39	0.12
2088.72	0.2
2089.04	0.56
2089.37	0.88
2089.69	1.28
2090.02	1.52
2090.34	1.04
2090.67	0.68
2090.99	-1.64
2091.32	-1.84
2091.64	-1.6
2091.97	-1.2
2092.29	-1.2
2092.62	0.8
2092.94	0.56
2093.26	0.2
2093.59	0.36
2093.91	-0.92
2094.24	-0.92
2094.56	-0.88
2094.89	-0.44
2095.21	-0.6
2095.54	0.72
2095.86	1.2
2096.19	1.44
2096.51	1.24
2096.84	1.68
2097.16	1.56
2097.48	1.08
2097.81	0.88
2098.13	0.8
2098.46	-0.04
2098.78	0.04
2099.11	0.24
2099.43	0.32
2099.75	0.04
2100.08	0.48
2100.4	0.4
2100.73	0.36
2101.05	0.88
2101.38	1.04
2101.7	1.04
2102.02	1.12
2102.35	1.12
2102.67	0.48
2103	0.32
2103.32	0.32
2103.64	0.48
2103.97	0.32
2104.29	0.4
2104.62	0.6
2104.94	0.96
2105.26	0.12
2105.59	0.24
2105.91	0.56
2106.23	0.36
2106.56	-0.04
2106.88	0.68
2107.21	0.72
2107.53	0.32
2107.85	0.44
2108.18	0.72
2108.5	0.96
2108.82	0.84
2109.15	0.8
2109.47	0.68
2109.79	0.68
2110.12	0.32
2110.44	0.56
2110.76	0.84
2111.09	0.84
2111.41	0.96
2111.73	0.96
2112.06	1.28
2112.38	1.04
2112.7	0.44
2113.03	0.2
2113.35	0.44
2113.67	-0.08
2114	0.04
2114.32	0.96
2114.64	0.8
2114.97	0.6
2115.29	0.52
2115.61	0.52
2115.94	0.2
2116.26	0.6
2116.58	0.56
2116.91	-0.44
2117.23	-0.48
2117.55	-0.28
2117.87	-0.64
2118.2	-0.64
2118.52	0.36
2118.84	0.4
2119.17	0.2
2119.49	0.28
2119.81	0.72
2120.13	0.96
2120.46	0.88
2120.78	0.32
2121.1	0.44
2121.42	0.12
2121.75	0.04
2122.07	0.08
2122.39	0.76
2122.72	0.72
2123.04	0.68
2123.36	0.68
2123.68	0.8
2124.01	0.68
2124.33	0.84
2124.65	0.88
2124.97	1.16
2125.29	1
2125.62	1.32
2125.94	1.36
2126.26	1.68
2126.58	1.24
2126.91	0.4
2127.23	0.24
2127.55	0.04
2127.87	-0.4
2128.2	5.55112e-17
2128.52	0.92
2128.84	0.76
2129.16	0.56
2129.48	0.6
2129.81	0.36
2130.13	0.28
2130.45	0.48
2130.77	0.8
2131.09	1.12
2131.42	1.12
2131.74	1.24
2132.06	1.04
2132.38	0.72
2132.7	0.44
2133.02	0.36
2133.35	0.16
2133.67	0.28
2133.99	0.28
2134.31	-0.16
2134.63	-0.16
2134.96	-1.33221e-17
2135.28	-0.04
2135.6	3.60836e-18
2135.92	0.56
2136.24	0.48
2136.56	0.32
2136.88	0.68
2137.21	0.88
2137.53	0.68
2137.85	0.84
2138.17	0.52
2138.49	0.24
2138.81	1.44334e-17
2139.13	0.48
2139.46	0.6
2139.78	1.36
2140.1	1.28
2140.42	1.28
2140.74	1
2141.06	1.16
2141.38	0.84
2141.7	1.04
2142.03	1.04
2142.35	0.84
2142.67	0.4
2142.99	0.28
2143.31	0.24
2143.63	0.52
2143.95	0.52
2144.27	0.52
2144.59	0.72
2144.91	0.36
2145.24	0.2
2145.56	0.2
2145.88	0.24
2146.2	0.2
2146.52	0.64
2146.84	0.68
2147.16	0.76
2147.48	0.72
2147.8	0.92
2148.12	0.96
2148.44	0.84
2148.76	0.76
2149.08	0.76
2149.41	0.64
2149.73	0.48
2150.05	0.44
2150.37	0.44
2150.69	0.76
2151.01	0.56
2151.33	0.36
2151.65	1.16
2151.97	1.64
2152.29	1.64
2152.61	1.28
2152.93	1.28
2153.25	0.8
2153.57	0.56
2153.89	0.28
2154.21	0.52
2154.53	0.52
2154.85	0.2
2155.17	0.08
2155.49	-0.16
2155.81	0.4
2156.13	0.68
2156.45	0.68
2156.77	0.8
2157.09	1
2157.41	0.96
2157.73	0.8
2158.05	0.92
2158.37	0.72
2158.69	0.76
2159.01	0.32
2159.33	0.44
2159.65	0.4
2159.97	0.36
2160.29	0.32
2160.61	0.36
2160.93	0.12
2161.25	0.04
2161.57	0.88
2161.89	0.88
2162.21	0.84
2162.53	0.84
2162.85	0.48
2163.17	0.12
2163.49	0.16
2163.81	0.4
2164.13	0.4
2164.45	0.52
2164.77	0.16
2165.08	0.12
2165.4	-0.12
2165.72	0.44
2166.04	0.92
2166.36	0.96
2166.68	1.04
2167	1.04
2167.32	0.76
2167.64	0.6
2167.96	0.52
2168.28	0.92
2168.6	1.12
2168.92	0.96
2169.24	0.88
2169.55	0.92
2169.87	0.44
2170.19	0.32
2170.51	0.2
2170.83	0.2
2171.15	0.12
2171.47	0.12
2171.79	0.04
2172.11	0.32
2172.43	0.36
2172.74	0.4
2173.06	0.64
2173.38	1
2173.7	0.8
2174.02	1.08
2174.34	1
2174.66	1
2174.98	0.8
2175.29	0.72
2175.61	0.4
2175.93	0.76
2176.25	0.8
2176.57	0.64
2176.89	0.64
2177.21	0.72
2177.52	0.4
2177.84	0.12
2178.16	0.28
2178.48	0.72
2178.8	0.84
2179.12	0.92
2179.43	1.28
2179.75	0.28
2180.07	-0.08
2180.39	0.08
2180.71	1.05473e-17
2181.03	-0.24
2181.34	0.6
2181.66	1.12
2181.98	1.08
2182.3	1.24
2182.62	1.24
2182.93	0.84
2183.25	0.28
2183.57	-3.33053e-18
2183.89	-0.2
2184.21	0.32
2184.52	0.8
2184.84	0.76
2185.16	0.72
2185.48	0.8
2185.8	0.56
2186.11	0.56
2186.43	0.56
2186.75	0.64
2187.07	0.16
2187.39	-0.84
2187.7	-0.92
2188.02	-1.48
2188.34	-1.24
2188.66	-0.28
2188.97	0.32
2189.29	0.4
2189.61	0.96
2189.93	0.64
2190.24	0.28
2190.56	0.64
2190.88	0.64
2191.2	0.64
2191.51	0.64
2191.83	0.44
2192.15	0.08
2192.47	0.16
2192.78	0.16
2193.1	0.2
2193.42	0.2
2193.74	0.36
2194.05	0.2
2194.37	0.44
2194.69	0.52
2195	0.24
2195.32	0.16
2195.64	0.16
2195.96	-0.08
2196.27	-0.2
2196.59	-0.44
2196.91	-0.52
2197.22	-0.52
2197.54	-0.52
2197.86	-0.32
2198.18	0.56
2198.49	0.6
2198.81	0.72
2199.13	0.72
2199.44	0.8
2199.76	0.44
2200.08	0.64
2200.39	0.52
2200.71	0.52
2201.03	0.24
2201.34	0.24
2201.66	0
2201.98	0
2202.29	0
2202.61	0
2202.93	0.32
2203.24	0.36
2203.56	0.76
2203.88	0.76
2204.19	0.96
2204.51	0.92
2204.83	0.88
2205.14	0.8
2205.46	0.8
2205.78	0.6
2206.09	0.56
2206.41	0.52
2206.72	0.16
2207.04	0.72
2207.36	0.52
2207.67	0.52
2207.99	0.88
2208.31	1.04
2208.62	0.48
2208.94	1.28
2209.25	1.4
2209.57	1.08
2209.89	1.04
2210.2	1.04
2210.52	0.44
2210.83	0.44
2211.15	0.52
2211.47	0.44
2211.78	0.48
2212.1	0.08
2212.41	-0.28
2212.73	-0.28
2213.05	-0.24
2213.36	-0.16
2213.68	0.32
2213.99	0.84
2214.31	0.92
2214.62	0.88
2214.94	0.92
2215.26	1
2215.57	0.48
2215.89	0.44
2216.2	0.96
2216.52	0.84
2216.83	0.72
2217.15	0.72
2217.46	0.8
2217.78	0.56
2218.1	0.36
2218.41	0.48
2218.73	1.12
2219.04	1.12
2219.36	1.08
2219.67	1.56
2219.99	1.44
2220.3	0.84
2220.62	0.68
2220.93	0.56
2221.25	0.24
2221.56	0.24
2221.88	0.28
2222.19	0.24
2222.51	0.48
2222.82	-0.88
2223.14	-0.92
2223.45	-0.8
2223.77	-0.8
2224.08	-1.04
2224.4	0.32
2224.71	0.68
2225.03	0.52
2225.34	0.68
2225.66	-0.84
2225.97	-0.8
2226.29	-1.08
2226.6	-0.88
2226.92	-1.04
2227.23	0.4
2227.55	0.44
2227.86	0.36
2228.18	0.12
2228.49	0.12
2228.81	0.2
2229.12	0.12
2229.44	0.32
2229.75	0.56
2230.07	0.56
2230.38	0.44
2230.69	0.44
2231.01	0.48
2231.32	0.24
2231.64	0.24
2231.95	0.48
2232.27	0.72
2232.58	0.48
2232.9	0.56
2233.21	0.76
2233.52	0.72
2233.84	0.52
2234.15	0.52
2234.47	0.52
2234.78	0.64
2235.1	0.72
2235.41	0.68
2235.72	0.68
2236.04	0.6
2236.35	0.28
2236.67	-0.2
2236.98	-0.2
2237.29	-0.2
2237.61	-0.04
2237.92	0.2
2238.24	0.52
2238.55	0.56
2238.86	0.64
2239.18	0.8
2239.49	-0.24
2239.8	4.21755e-17
2240.12	0.04
2240.43	0.16
2240.75	-0.16
2241.06	0.8
2241.37	0.44
2241.69	0.36
2242	0.2
2242.31	0.4
2242.63	0.24
2242.94	0.48
2243.26	0.36
2243.57	0.32
2243.88	0.12
2244.2	0.28
2244.51	0.04
2244.82	0.16
2245.14	0.32
2245.45	0.4
2245.76	0.24
2246.08	0.32
2246.39	0.4
2246.7	0.24
2247.02	0.4
2247.33	0.4
2247.64	0.44
2247.96	0.4
2248.27	0.56
2248.58	-0.68
2248.9	-0.32
2249.21	-0.44
2249.52	-0.36
2249.83	-0.52
2250.15	0.68
2250.46	0.8
2250.77	1.24
2251.09	1.28
2251.4	1.28
2251.71	1.24
2252.03	0.84
2252.34	0.72
2252.65	0.56
2252.96	0.68
2253.28	0.8
2253.59	0.72
2253.9	0.4
2254.21	0.68
2254.53	0.56
2254.84	-0.12
2255.15	-0.12
2255.47	-4.88501e-17
2255.78	0.2
2256.09	0.2
2256.4	0.92
2256.72	0.92
2257.03	0.92
2257.34	0.48
2257.65	0.92
2257.97	0.68
2258.28	0.68
2258.59	0.6
2258.9	0.56
2259.22	0.2
2259.53	0.12
2259.84	0.2
2260.15	0.32
2260.46	0.36
2260.78	0.76
2261.09	0.76
2261.4	0.68
2261.71	0.92
2262.03	1.08
2262.34	0.64
2262.65	0.96
2262.96	1.12
2263.27	0.72
2263.59	0.52
2263.9	0.56
2264.21	0.32
2264.52	0.16
2264.83	0.28
2265.15	0.36
2265.46	0.28
2265.77	0.2
2266.08	0.68
2266.39	0.64
2266.7	0.56
2267.02	0.72
2267.33	0.32
2267.64	-0.16
2267.95	-0.24
2268.26	-0.24
2268.57	-0.4
2268.89	0.32
2269.2	0.32
2269.51	0.32
2269.82	0.36
2270.13	0.36
2270.44	0.28
2270.76	-0.12
2271.07	6.66107e-18
2271.38	-0.48
2271.69	-0.4
2272	-0.56
2272.31	-0.24
2272.62	-1.12
2272.93	-0.6
2273.25	-0.68
2273.56	-0.56
2273.87	-0.44
2274.18	0.68
2274.49	0.84
2274.8	0.84
2275.11	0.92
2275.42	0.88
2275.74	0.6
2276.05	0.44
2276.36	0.64
2276.67	0.48
2276.98	0.48
2277.29	0.4
2277.6	0.36
2277.91	0.16
2278.22	0.12
2278.53	0.2
2278.85	0.2
2279.16	-0.84
2279.47	-0.84
2279.78	-0.56
2280.09	-0.64
2280.4	-0.28
2280.71	1.12
2281.02	1.12
2281.33	0.76
2281.64	1
2281.95	0.84
2282.26	0.44
2282.57	0.76
2282.88	0.76
2283.19	0.72
2283.5	0.68
2283.82	0.8
2284.13	0.48
2284.44	0.48
2284.75	-0.32
2285.06	-0.32
2285.37	-0.44
2285.68	-0.44
2285.99	-0.16
2286.3	0.56
2286.61	0.44
2286.92	0.48
2287.23	0.52
2287.54	0.24
2287.85	0.12
2288.16	0.08
2288.47	0.04
2288.78	0.16
2289.09	0.4
2289.4	0.44
2289.71	0.44
2290.02	0.44
2290.33	0.36
2290.64	0.16
2290.95	-0.04
2291.26	-0.04
2291.57	-0.04
2291.88	-0.32
2292.19	-0.36
2292.5	-0.2
2292.81	-0.2
2293.12	-0.2
2293.43	0
2293.74	0
2294.05	0
2294.36	0
2294.67	0
2294.98	0
2295.29	0
2295.6	0
2295.91	0
2296.21	0
2296.52	0
2296.83	0
2297.14	0
2297.45	0
2297.76	0
2298.07	0
2298.38	0
2298.69	0
2299	0
2299.31	0
2299.62	0
2299.93	0
2300.24	0
2300.55	0
2300.85	0
2301.16	0
2301.47	0
2301.78	0
2302.09	0
2302.4	0
2302.71	0
2303.02	0
2303.33	0
2303.64	0
2303.94	0
2304.25	0
2304.56	0
2304.87	0
2305.18	0
2305.49	0
2305.8	0
2306.11	0
2306.42	0
2306.72	0
2307.03	0
2307.34	0
2307.65	0
2307.96	0
2308.27	0
2308.58	0
2308.88	0
2309.19	0
2309.5	0
2309.81	0
2310.12	0
2310.43	0
2310.74	0
2311.04	0
2311.35	0
2311.66	0
2311.97	0
2312.28	0
2312.59	0
2312.89	0
2313.2	0
2313.51	0
2313.82	0
2314.13	0
2314.43	0
2314.74	0
2315.05	0
2315.36	0
2315.67	0
2315.97	0
2316.28	0
2316.59	0
2316.9	0
2317.21	0
2317.51	0
2317.82	0
2318.13	0
2318.44	0
2318.75	0
2319.05	0
2319.36	0
2319.67	0
2319.98	0
2320.28	0
2320.59	0
2320.9	0
2321.21	0
2321.51	0
2321.82	0
2322.13	0
2322.44	0
2322.74	0
2323.05	0
2323.36	0
2323.67	0
2323.97	0
2324.28	0
2324.59	0
2324.9	0
2325.2	0
2325.51	0
2325.82	0
2326.13	0
2326.43	0
2326.74	0
2327.05	0
2327.35	0
2327.66	0
2327.97	0
2328.27	0
2328.58	0
2328.89	0
2329.2	0
2329.5	0
2329.81	0
2330.12	0
2330.42	0
2330.73	0
2331.04	0
2331.34	0
2331.65	0
2331.96	0
2332.26	0
2332.57	0
2332.88	0
2333.18	0
2333.49	0
2333.8	0
2334.1	0
2334.41	0
2334.72	0
2335.02	0
2335.33	0
2335.64	0
2335.94	0
2336.25	0
2336.56	0
2336.86	0
2337.17	0
2337.48	0
2337.78	0
2338.09	0
2338.39	0
2338.7	0
2339.01	0
2339.31	0
2339.62	0
2339.93	0
2340.23	0
2340.54	0
2340.84	0
2341.15	0
2341.46	0
2341.76	0
2342.07	0
2342.37	0
2342.68	0
2342.99	0
2343.29	0
2343.6	0
2343.9	0
2344.21	0
2344.51	0
2344.82	0
2345.13	0
2345.43	0
2345.74	0
2346.04	0
2346.35	0
2346.65	0
2346.96	0
2347.27	0
2347.57	0
2347.88	0
2348.18	0
2348.49	0
2348.79	0
2349.1	0
2349.4	0
2349.71	0
2350.01	0
2350.32	0
2350.63	0
2350.93	0
2351.24	0
2351.54	0
2351.85	0
2352.15	0
2352.46	0
2352.76	0
2353.07	0
2353.37	0
2353.68	0
2353.98	0
2354.29	0
2354.59	0
2354.9	0
2355.2	0
2355.51	0
2355.81	0
2356.12	0
2356.42	0
2356.73	0
2357.03	0
2357.34	0
2357.64	0
2357.95	0
2358.25	0
2358.55	0
2358.86	0
2359.16	0
2359.47	0
2359.77	0
2360.08	0
2360.38	0
2360.69	0
2360.99	0
2361.3	0
2361.6	0
2361.9	0
2362.21	0
2362.51	0
2362.82	0
2363.12	0
2363.43	0
2363.73	0
2364.04	0
2364.34	0
2364.64	0
2364.95	0
2365.25	0
2365.56	0
2365.86	0
2366.16	0
2366.47	0
2366.77	0
2367.08	0
2367.38	0
2367.68	0
2367.99	0
2368.29	0
2368.6	0
2368.9	0
2369.2	0
2369.51	0
2369.81	0
2370.12	0
2370.42	0
2370.72	0
2371.03	0
2371.33	0
2371.63	0
2371.94	0
2372.24	0
2372.55	0
2372.85	0
2373.15	0
2373.46	0
2373.76	0
2374.06	0
2374.37	0
2374.67	0
2374.97	0
2375.28	0
2375.58	0
2375.88	0
2376.19	0
2376.49	0
2376.79	0
2377.1	0
2377.4	0
2377.7	0
2378.01	0
2378.31	0
2378.61	0
2378.92	0
2379.22	0
2379.52	0
2379.82	0
2380.13	0
2380.43	0
2380.73	0
2381.04	0
2381.34	0
2381.64	0
2381.95	0
2382.25	0
2382.55	0
2382.85	0
2383.16	0
2383.46	0
2383.76	0
2384.06	0
2384.37	0
2384.67	0
2384.97	0
2385.28	0
2385.58	0
2385.88	0
2386.18	0
2386.49	0
2386.79	0
2387.09	0
2387.39	0
2387.69	0
2388	0
2388.3	0
2388.6	0
2388.9	0
2389.21	0
2389.51	0
2389.81	0
2390.11	0
2390.42	0
2390.72	0
2391.02	0
2391.32	0
2391.62	0
2391.93	0
2392.23	0
2392.53	0
2392.83	0
2393.13	0
2393.44	0
2393.74	0
2394.04	0
2394.34	0
2394.64	0
2394.95	0
2395.25	0
2395.55	0
2395.85	0
2396.15	0
2396.45	0
2396.76	0
2397.06	0
2397.36	0
2397.66	0
2397.96	0
2398.26	0
2398.57	0
2398.87	0
2399.17	0
2399.47	0
2399.77	0
2400.07	0
2400.37	0
2400.68	0
2400.98	0
2401.28	0
2401.58	0
2401.88	0
2402.18	0
2402.48	0
2402.79	0
2403.09	0
2403.39	0
2403.69	0
2403.99	0
2404.29	0
2404.59	0
2404.89	0
2405.19	0
2405.5	0
2405.8	0
2406.1	0
2406.4	0
2406.7	0
2407	0
2407.3	0
2407.6	0
2407.9	0
2408.2	0
2408.5	0
2408.8	0
2409.11	0
2409.41	0
2409.71	0
2410.01	0
2410.31	0
2410.61	0
2410.91	0
2411.21	0
2411.51	0
2411.81	0
2412.11	0
2412.41	0
2412.71	0
2413.01	0
2413.31	0
2413.61	0
2413.91	0
2414.21	0
2414.51	0
2414.81	0
2415.12	0
2415.42	0
2415.72	0
2416.02	0
2416.32	0
2416.62	0
2416.92	0
2417.22	0
2417.52	0
2417.82	0
2418.12	0
2418.42	0
2418.72	0
2419.02	0
2419.32	0
2419.62	0
2419.92	0
2420.22	0
2420.52	0
2420.82	0
2421.12	0
2421.42	0
2421.71	0
2422.01	0
2422.31	0
2422.61	0
2422.91	0
2423.21	0
2423.51	0
2423.81	0
2424.11	0
2424.41	0
2424.71	0
2425.01	0
2425.31	0
2425.61	0
2425.91	0
2426.21	0
2426.51	0
2426.81	0
2427.11	0
2427.41	0
2427.7	0
2428	0
2428.3	0
2428.6	0
2428.9	0
2429.2	0
2429.5	0
2429.8	0
2430.1	0
2430.4	0
2430.7	0
2430.99	0
2431.29	0
2431.59	0
2431.89	0
2432.19	0
2432.49	0
2432.79	0
2433.09	0
2433.39	0
2433.68	0
2433.98	0
2434.28	0
2434.58	0
2434.88	0
2435.18	0
2435.48	0
2435.78	0
2436.07	0
2436.37	0
2436.67	0
2436.97	0
2437.27	0
2437.57	0
2437.86	0
2438.16	0
2438.46	0
2438.76	0
2439.06	0
2439.36	0
2439.66	0
2439.95	0
2440.25	0
2440.55	0
2440.85	0
2441.15	0
2441.44	0
2441.74	0
2442.04	0
2442.34	0
2442.64	0
2442.93	0
2443.23	0
2443.53	0
2443.83	0
2444.13	0
2444.42	0
2444.72	0
2445.02	0
2445.32	0
2445.62	0
2445.91	0
2446.21	0
2446.51	0
2446.81	0
2447.1	0
2447.4	0
2447.7	0
2448	0
2448.3	0
2448.59	0
2448.89	0
2449.19	0
2449.49	0
2449.78	0
2450.08	0
2450.38	0
2450.68	0
2450.97	0
2451.27	0
2451.57	0
2451.87	0
2452.16	0
2452.46	0
2452.76	0
2453.05	0
2453.35	0
2453.65	0
2453.95	0
2454.24	0
2454.54	0
2454.84	0
2455.13	0
2455.43	0
2455.73	0
2456.03	0
2456.32	0
2456.62	0
2456.92	0
2457.21	0
2457.51	0
2457.81	0
2458.1	0
2458.4	0
2458.7	0
2458.99	0
2459.29	0
2459.59	0
2459.88	0
2460.18	0
2460.48	0
2460.77	0
2461.07	0
2461.37	0
2461.66	0
2461.96	0
2462.26	0
2462.55	0
2462.85	0
2463.15	0
2463.44	0
2463.74	0
2464.04	0
2464.33	0
2464.63	0
2464.92	0
2465.22	0
2465.52	0
2465.81	0
2466.11	0
2466.41	0
2466.7	0
2467	0
2467.29	0
2467.59	0
2467.89	0
2468.18	0
2468.48	0
2468.77	0
2469.07	0
2469.37	0
2469.66	0
2469.96	0
2470.25	0
2470.55	0
2470.84	0
2471.14	0
2471.44	0
2471.73	0
2472.03	0
2472.32	0
2472.62	0
2472.91	0
2473.21	0
2473.51	0
2473.8	0
2474.1	0
2474.39	0
2474.69	0
2474.98	0
2475.28	0
2475.57	0
2475.87	0
2476.17	0
2476.46	0
2476.76	0
2477.05	0
2477.35	0
2477.64	0
2477.94	0
2478.23	0
2478.53	0
2478.82	0
2479.12	0
2479.41	0
2479.71	0
2480	0
2480.3	0
2480.59	0
2480.89	0
2481.18	0
2481.48	0
2481.77	0
2482.07	0
2482.36	0
2482.66	0
2482.95	0
2483.25	0
2483.54	0
2483.84	0
2484.13	0
2484.43	0
2484.72	0
2485.02	0
2485.31	0
2485.6	0
2485.9	0
2486.19	0
2486.49	0
2486.78	0
2487.08	0
2487.37	0
2487.67	0
2487.96	0
2488.26	0
2488.55	0
2488.84	0
2489.14	0
2489.43	0
2489.73	0
2490.02	0
2490.32	0
2490.61	0
2490.9	0
2491.2	0
2491.49	0
2491.79	0
2492.08	0
2492.37	0
2492.67	0
2492.96	0
2493.26	0
2493.55	0
2493.84	0
2494.14	0
2494.43	0
2494.73	0
2495.02	0
2495.31	0
2495.61	0
2495.9	0
2496.2	0
2496.49	0
2496.78	0
2497.08	0
2497.37	0
2497.66	0
2497.96	0
2498.25	0
2498.54	0
2498.84	0
2499.13	0
2499.43	0
2499.72	0
2500.01	0
2500.31	0
2500.6	0
2500.89	0
2501.19	0
2501.48	0
2501.77	0
2502.07	0
2502.36	0
2502.65	0
2502.95	0
2503.24	0
2503.53	0
2503.82	0
2504.12	0
2504.41	0
2504.7	0
2505	0
2505.29	0
2505.58	0
2505.88	0
2506.17	0
2506.46	0
2506.76	0
2507.05	0
2507.34	0
2507.63	0
2507.93	0
2508.22	0
2508.51	0
2508.8	0
2509.1	0
2509.39	0
2509.68	0
2509.98	0
2510.27	0
2510.56	0
2510.85	0
2511.15	0
2511.44	0
2511.73	0
2512.02	0
2512.32	0
2512.61	0
2512.9	0
2513.19	0
2513.49	0
2513.78	0
2514.07	0
2514.36	0
2514.65	0
2514.95	0
2515.24	0
2515.53	0
2515.82	0
2516.12	0
2516.41	0
2516.7	0
2516.99	0
2517.28	0
2517.58	0
2517.87	0
2518.16	0
2518.45	0
2518.74	0
2519.04	0
2519.33	0
2519.62	0
2519.91	0
2520.2	0
2520.5	0
2520.79	0
2521.08	0
2521.37	0
2521.66	0
2521.95	0
2522.25	0
2522.54	0
2522.83	0
2523.12	0
2523.41	0
2523.7	0
2523.99	0
2524.29	0
2524.58	0
2524.87	0
2525.16	0
2525.45	0
2525.74	0
2526.03	0
2526.33	0
2526.62	0
2526.91	0
2527.2	0
2527.49	0
2527.78	0
2528.07	0
2528.36	0
2528.66	0
2528.95	0
2529.24	0
2529.53	0
2529.82	0
2530.11	0
2530.4	0
2530.69	0
2530.98	0
2531.27	0
2531.57	0
2531.86	0
2532.15	0
2532.44	0
2532.73	0
2533.02	0
2533.31	0
2533.6	0
2533.89	0
2534.18	0
2534.47	0
2534.76	0
2535.05	0
2535.35	0
2535.64	0
2535.93	0
2536.22	0
2536.51	0
2536.8	0
2537.09	0
2537.38	0
2537.67	0
2537.96	0
2538.25	0
2538.54	0
2538.83	0
2539.12	0
2539.41	0
2539.7	0
2539.99	0
2540.28	0
2540.57	0
2540.86	0
2541.15	0
2541.44	0
2541.73	0
2542.02	0
2542.31	0
2542.6	0
2542.89	0
2543.18	0
2543.47	0
2543.76	0
2544.05	0
2544.34	0
2544.63	0
2544.92	0
2545.21	0
2545.5	0
2545.79	0
2546.08	0
2546.37	0
2546.66	0
2546.95	0
2547.24	0
2547.53	0
2547.82	0
2548.11	0
2548.4	0
2548.69	0
2548.98	0
2549.27	0
2549.55	0
2549.84	0
2550.13	0
2550.42	0
2550.71	0
2551	0
2551.29	0
2551.58	0
2551.87	0
2552.16	0
2552.45	0
2552.74	0
2553.03	0
2553.31	0
2553.6	0
2553.89	0
2554.18	0
2554.47	0
2554.76	0
2555.05	0
2555.34	0
2555.63	0
2555.92	0
2556.2	0
2556.49	0
2556.78	0
2557.07	0
2557.36	0
2557.65	0
2557.94	0
2558.23	0
2558.51	0
2558.8	0
2559.09	0
2559.38	0
2559.67	0
2559.96	0
2560.25	0
2560.53	0
2560.82	0
2561.11	0
2561.4	0
2561.69	0
2561.98	0
2562.27	0
2562.55	0
2562.84	0
2563.13	0
2563.42	0
2563.71	0
2564	0
2564.28	0
2564.57	0
2564.86	0
2565.15	0
2565.44	0
2565.72	0
2566.01	0
2566.3	0
2566.59	0
2566.88	0
2567.16	0
2567.45	0
2567.74	0
2568.03	0
2568.32	0
2568.6	0
2568.89	0
2569.18	0
2569.47	0
2569.75	0

