Source: Spectrum Viewer

Chart: Pulse Spectrum

Series: 
Wavelength (nm)	S (a.u.)
1179.9	0
1180.29	0
1180.68	0
1181.06	0
1181.45	0
1181.83	0
1182.22	0
1182.6	0
1182.99	0
1183.38	0
1183.76	0
1184.15	0
1184.53	0
1184.92	0
1185.3	0
1185.69	0
1186.07	0
1186.46	0
1186.85	0
1187.23	0
1187.62	0
1188	0
1188.39	0
1188.77	0
1189.16	0
1189.54	0
1189.93	0
1190.31	0
1190.7	0
1191.08	0
1191.47	0
1191.85	0
1192.24	0
1192.62	0
1193.01	0
1193.39	0
1193.78	0
1194.16	0
1194.55	0
1194.93	0
1195.32	0
1195.7	0
1196.09	0
1196.47	0
1196.86	0
1197.24	0
1197.63	0
1198.01	0
1198.4	0
1198.78	0
1199.16	0
1199.55	0
1199.93	0
1200.32	0
1200.7	0
1201.09	0
1201.47	0
1201.86	0
1202.24	0
1202.63	0
1203.01	0
1203.39	0
1203.78	0
1204.16	0
1204.55	0
1204.93	0
1205.32	0
1205.7	0
1206.08	0
1206.47	0
1206.85	0
1207.24	0
1207.62	0
1208	0
1208.39	0
1208.77	0
1209.16	0
1209.54	0
1209.92	0
1210.31	0
1210.69	0
1211.08	0
1211.46	0
1211.84	0
1212.23	0
1212.61	0
1213	0
1213.38	0
1213.76	0
1214.15	0
1214.53	0
1214.91	0
1215.3	0
1215.68	0
1216.06	0
1216.45	0
1216.83	0
1217.22	0
1217.6	0
1217.98	0
1218.37	0
1218.75	0
1219.13	0
1219.52	0
1219.9	0
1220.28	0
1220.67	0
1221.05	0
1221.43	0
1221.82	0
1222.2	0
1222.58	0
1222.97	0
1223.35	0
1223.73	0
1224.11	0
1224.5	0
1224.88	0
1225.26	0
1225.65	0
1226.03	0
1226.41	0
1226.8	0
1227.18	0
1227.56	0
1227.94	0
1228.33	0
1228.71	0
1229.09	0
1229.47	0
1229.86	0
1230.24	0
1230.62	0
1231.01	0
1231.39	0
1231.77	0
1232.15	0
1232.54	0
1232.92	0
1233.3	0
1233.68	0
1234.07	0
1234.45	0
1234.83	0
1235.21	0
1235.6	0
1235.98	0
1236.36	0
1236.74	0
1237.12	0
1237.51	0
1237.89	0
1238.27	0
1238.65	0
1239.04	0
1239.42	0
1239.8	0
1240.18	0
1240.56	0
1240.95	0
1241.33	0
1241.71	0
1242.09	0
1242.47	0
1242.86	0
1243.24	0
1243.62	0
1244	0
1244.38	0
1244.77	0
1245.15	0
1245.53	0
1245.91	0
1246.29	0
1246.67	0
1247.06	0
1247.44	0
1247.82	0
1248.2	0
1248.58	0
1248.96	0
1249.34	0
1249.73	0
1250.11	0
1250.49	0
1250.87	0
1251.25	0
1251.63	0
1252.01	0
1252.4	0
1252.78	0
1253.16	0
1253.54	0
1253.92	0
1254.3	0
1254.68	0
1255.06	0
1255.45	0
1255.83	0
1256.21	0
1256.59	0
1256.97	0
1257.35	0
1257.73	0
1258.11	0
1258.49	0
1258.87	0
1259.26	0
1259.64	0
1260.02	0
1260.4	0
1260.78	0
1261.16	0
1261.54	0
1261.92	0
1262.3	0
1262.68	0
1263.06	0
1263.44	0
1263.82	0
1264.21	0
1264.59	0
1264.97	0
1265.35	0
1265.73	0
1266.11	0
1266.49	0
1266.87	0
1267.25	0
1267.63	0
1268.01	0
1268.39	0
1268.77	0
1269.15	0
1269.53	0
1269.91	0
1270.29	0
1270.67	0
1271.05	0
1271.43	0
1271.81	0
1272.19	0
1272.57	0
1272.95	0
1273.33	0
1273.71	0
1274.09	0
1274.47	0
1274.85	0
1275.23	0
1275.61	0
1275.99	0
1276.37	0
1276.75	0
1277.13	0
1277.51	0
1277.89	0
1278.27	0
1278.65	0
1279.03	0
1279.41	0
1279.79	0
1280.17	0
1280.55	0
1280.93	0
1281.31	0
1281.69	0
1282.07	0
1282.45	0
1282.82	0
1283.2	0
1283.58	0
1283.96	0
1284.34	0
1284.72	0
1285.1	0
1285.48	0
1285.86	0
1286.24	0
1286.62	0
1287	0
1287.38	0
1287.75	0
1288.13	0
1288.51	0
1288.89	0
1289.27	0
1289.65	0
1290.03	0
1290.41	0
1290.79	0
1291.17	0
1291.54	0
1291.92	0
1292.3	0
1292.68	0
1293.06	0
1293.44	0
1293.82	0
1294.2	0
1294.57	0
1294.95	0
1295.33	0
1295.71	0
1296.09	0
1296.47	0
1296.85	0
1297.22	0
1297.6	0
1297.98	0
1298.36	0
1298.74	0
1299.12	0
1299.5	0
1299.87	0
1300.25	0
1300.63	0
1301.01	0
1301.39	0
1301.77	0
1302.14	0
1302.52	0
1302.9	0
1303.28	0
1303.66	0
1304.03	0
1304.41	0
1304.79	0
1305.17	0
1305.55	0
1305.92	0
1306.3	0
1306.68	0
1307.06	0
1307.44	0
1307.81	0
1308.19	0
1308.57	0
1308.95	0
1309.32	0
1309.7	0
1310.08	0
1310.46	0
1310.84	0
1311.21	0
1311.59	0
1311.97	0
1312.35	0
1312.72	0
1313.1	0
1313.48	0
1313.86	0
1314.23	0
1314.61	0
1314.99	0
1315.37	0
1315.74	0
1316.12	0
1316.5	0
1316.87	0
1317.25	0
1317.63	0
1318.01	0
1318.38	0
1318.76	0
1319.14	0
1319.52	0
1319.89	0
1320.27	0
1320.65	0
1321.02	0
1321.4	0
1321.78	0
1322.15	0
1322.53	0
1322.91	0
1323.29	0
1323.66	0
1324.04	0
1324.42	0
1324.79	0
1325.17	0
1325.55	0
1325.92	0
1326.3	0
1326.68	0
1327.05	0
1327.43	0
1327.81	0
1328.18	0
1328.56	0
1328.94	0
1329.31	0
1329.69	0
1330.06	0
1330.44	0
1330.82	0
1331.19	0
1331.57	0
1331.95	0
1332.32	0
1332.7	0
1333.08	0
1333.45	0
1333.83	0
1334.2	0
1334.58	0
1334.96	0
1335.33	0
1335.71	0
1336.08	0
1336.46	0
1336.84	0
1337.21	0
1337.59	0
1337.96	0
1338.34	0
1338.72	0
1339.09	0
1339.47	0
1339.84	0
1340.22	0
1340.6	0
1340.97	0
1341.35	0
1341.72	0
1342.1	0
1342.47	0
1342.85	0
1343.23	0
1343.6	0
1343.98	0
1344.35	0
1344.73	0
1345.1	0
1345.48	0
1345.85	0
1346.23	0
1346.61	0
1346.98	0
1347.36	0
1347.73	0
1348.11	0
1348.48	0
1348.86	0
1349.23	0
1349.61	0
1349.98	0
1350.36	0
1350.73	0
1351.11	0
1351.48	0
1351.86	0
1352.23	0
1352.61	0
1352.98	0
1353.36	0
1353.73	0
1354.11	0
1354.48	0
1354.86	0
1355.23	0
1355.61	0
1355.98	0
1356.36	0
1356.73	0
1357.11	0
1357.48	0
1357.86	0
1358.23	0
1358.61	0
1358.98	0
1359.35	0
1359.73	0
1360.1	0
1360.48	0
1360.85	0
1361.23	0
1361.6	0
1361.98	0
1362.35	0
1362.72	0
1363.1	0
1363.47	0
1363.85	0
1364.22	0
1364.6	0
1364.97	0
1365.34	0
1365.72	0
1366.09	0
1366.47	0
1366.84	0
1367.22	0
1367.59	0
1367.96	0
1368.34	0
1368.71	0
1369.09	0
1369.46	-0.84
1369.83	-0.84
1370.21	-0.8
1370.58	0
1370.96	0.32
1371.33	1.2
1371.7	1.44
1372.08	1.56
1372.45	0.76
1372.82	0.48
1373.2	0.44
1373.57	0.2
1373.95	0.04
1374.32	0.16
1374.69	0.36
1375.07	0.36
1375.44	0.68
1375.81	1
1376.19	0.88
1376.56	0.64
1376.93	0.64
1377.31	0.4
1377.68	0.36
1378.05	0.36
1378.43	0.36
1378.8	0.76
1379.17	0.68
1379.55	1
1379.92	1
1380.29	1.16
1380.67	0.76
1381.04	0.84
1381.41	0.24
1381.79	0.24
1382.16	0.6
1382.53	0.6
1382.91	-0.2
1383.28	-0.04
1383.65	0.04
1384.03	-0.04
1384.4	-0.04
1384.77	0.96
1385.14	0.84
1385.52	0.88
1385.89	0.68
1386.26	0.68
1386.64	0.52
1387.01	0.56
1387.38	0.72
1387.75	0.48
1388.13	0.48
1388.5	0.36
1388.87	0.28
1389.25	0.04
1389.62	0.28
1389.99	0.48
1390.36	0.52
1390.74	0.8
1391.11	0.76
1391.48	0.88
1391.85	0.8
1392.23	0.8
1392.6	0.52
1392.97	1.04
1393.34	0.68
1393.72	0.6
1394.09	0.56
1394.46	0.56
1394.83	0.08
1395.21	0.12
1395.58	0.08
1395.95	0.48
1396.32	0.48
1396.69	0.44
1397.07	0.44
1397.44	0.44
1397.81	0.24
1398.18	0.32
1398.55	0.32
1398.93	0.28
1399.3	0.56
1399.67	0.36
1400.04	0.28
1400.41	0.32
1400.79	1.04
1401.16	0.8
1401.53	0.96
1401.9	1
1402.27	1.2
1402.65	0.48
1403.02	0.48
1403.39	0.64
1403.76	0.32
1404.13	0.08
1404.51	0.08
1404.88	0.24
1405.25	4.88501e-17
1405.62	0.28
1405.99	0.36
1406.36	0.88
1406.74	0.72
1407.11	1
1407.48	1
1407.85	-0.28
1408.22	-0.56
1408.59	-0.6
1408.96	-0.72
1409.34	-0.72
1409.71	0.6
1410.08	0.36
1410.45	0.56
1410.82	0.6
1411.19	0.8
1411.56	0.96
1411.93	1
1412.31	0.8
1412.68	0.88
1413.05	0.68
1413.42	0.52
1413.79	0.52
1414.16	0.32
1414.53	-3.33053e-18
1414.9	-0.2
1415.27	-0.2
1415.65	-0.24
1416.02	-0.04
1416.39	0.12
1416.76	0.32
1417.13	0.24
1417.5	0.56
1417.87	0.76
1418.24	0.96
1418.61	1.16
1418.98	1.12
1419.35	0.8
1419.73	0.84
1420.1	0.52
1420.47	0.36
1420.84	0.36
1421.21	0.36
1421.58	0.12
1421.95	0.04
1422.32	0.12
1422.69	0.4
1423.06	0.52
1423.43	1
1423.8	1.16
1424.17	1.24
1424.54	0.96
1424.91	0.96
1425.28	1.08
1425.65	0.92
1426.02	0.76
1426.39	0.8
1426.76	0.08
1427.14	-0.52
1427.51	-0.44
1427.88	-0.36
1428.25	-0.4
1428.62	0.24
1428.99	0.24
1429.36	0.16
1429.73	0.24
1430.1	0.48
1430.47	0.64
1430.84	0.64
1431.21	0.64
1431.58	0.92
1431.95	0.68
1432.32	0.4
1432.69	0.88
1433.06	1
1433.43	0.72
1433.8	1.04
1434.17	1.2
1434.54	0.92
1434.91	0.8
1435.28	0.6
1435.64	0.4
1436.01	-0.12
1436.38	-0.32
1436.75	-0.32
1437.12	-0.32
1437.49	-0.44
1437.86	0.04
1438.23	0.16
1438.6	0.28
1438.97	0.32
1439.34	0.52
1439.71	0.48
1440.08	0.36
1440.45	0.28
1440.82	-0.28
1441.19	-0.4
1441.56	-0.4
1441.93	-0.4
1442.3	-0.44
1442.67	-0.96
1443.03	-0.72
1443.4	-0.44
1443.77	-0.44
1444.14	-0.32
1444.51	1.12
1444.88	1.48
1445.25	1.24
1445.62	1.4
1445.99	1.28
1446.36	0.96
1446.73	0.4
1447.09	0.64
1447.46	0.76
1447.83	0.84
1448.2	0.88
1448.57	0.92
1448.94	0.64
1449.31	0.44
1449.68	0.88
1450.05	0.88
1450.41	0.76
1450.78	0.36
1451.15	0.32
1451.52	0.16
1451.89	0.12
1452.26	0.36
1452.63	0.8
1453	0.76
1453.36	0.44
1453.73	0.36
1454.1	0.12
1454.47	0.08
1454.84	0.16
1455.21	0.28
1455.57	-0.12
1455.94	-0.08
1456.31	0.24
1456.68	0.32
1457.05	0.36
1457.42	0.76
1457.78	0.68
1458.15	0.64
1458.52	0.6
1458.89	0.48
1459.26	0.56
1459.63	0.56
1459.99	0.32
1460.36	0.2
1460.73	0.28
1461.1	0.2
1461.47	0.24
1461.83	0.48
1462.2	1.12
1462.57	1.04
1462.94	1.2
1463.31	1.32
1463.67	1.24
1464.04	0.52
1464.41	0.68
1464.78	-0.04
1465.15	-0.16
1465.51	-0.08
1465.88	0.08
1466.25	0.08
1466.62	0.96
1466.98	1.52
1467.35	1.44
1467.72	1.4
1468.09	1.16
1468.46	0.96
1468.82	0.36
1469.19	0.16
1469.56	0.52
1469.93	0.52
1470.29	0.4
1470.66	0.4
1471.03	0.4
1471.4	0.04
1471.76	0.12
1472.13	0.2
1472.5	0.24
1472.86	0.48
1473.23	1.08
1473.6	1.08
1473.97	1
1474.33	1
1474.7	0.76
1475.07	0.44
1475.44	0.6
1475.8	0.48
1476.17	0.64
1476.54	0.76
1476.9	0.6
1477.27	0.36
1477.64	0.56
1478	0.52
1478.37	0.48
1478.74	0.72
1479.11	0.72
1479.47	0.68
1479.84	0.52
1480.21	0.44
1480.57	0.04
1480.94	0.24
1481.31	0.32
1481.67	0.36
1482.04	0.4
1482.41	0.52
1482.77	0.32
1483.14	0.6
1483.51	0.6
1483.87	0.88
1484.24	0.76
1484.61	0.8
1484.97	0.76
1485.34	1.12
1485.71	-0.12
1486.07	-0.12
1486.44	-0.16
1486.81	-0.16
1487.17	-0.4
1487.54	0.52
1487.9	0.84
1488.27	0.84
1488.64	0.36
1489	0.56
1489.37	0.64
1489.74	0.4
1490.1	1
1490.47	1.12
1490.83	0.76
1491.2	0.96
1491.57	0.88
1491.93	0.32
1492.3	0.48
1492.66	0.76
1493.03	0.48
1493.4	0.6
1493.76	0.72
1494.13	0.56
1494.49	0.36
1494.86	0.36
1495.23	0.44
1495.59	0.28
1495.96	-1.04
1496.32	-1.12
1496.69	-1.12
1497.06	-1.08
1497.42	-1.88
1497.79	-0.44
1498.15	-0.4
1498.52	-0.24
1498.88	-0.44
1499.25	0.44
1499.62	-0.04
1499.98	-0.08
1500.35	0.2
1500.71	0.28
1501.08	0.32
1501.44	0.68
1501.81	1.16
1502.17	0.72
1502.54	0.88
1502.9	0.96
1503.27	0.96
1503.64	0.6
1504	0.6
1504.37	0.4
1504.73	0.48
1505.1	0.48
1505.46	0.4
1505.83	0.4
1506.19	0.32
1506.56	0.04
1506.92	0.04
1507.29	0.04
1507.65	0.08
1508.02	0.4
1508.38	0.56
1508.75	0.56
1509.11	0.72
1509.48	0.88
1509.84	0.56
1510.21	0.72
1510.57	0.8
1510.94	0.6
1511.3	0.44
1511.67	0.88
1512.03	0.8
1512.4	0.72
1512.76	0.72
1513.13	-0.12
1513.49	-0.76
1513.85	-0.76
1514.22	-0.76
1514.58	-0.72
1514.95	0.28
1515.31	0.64
1515.68	0.44
1516.04	0.44
1516.41	0.84
1516.77	0.64
1517.14	0.56
1517.5	0.56
1517.86	1
1518.23	0.56
1518.59	0.56
1518.96	0.8
1519.32	1
1519.69	0.56
1520.05	0.56
1520.41	0.56
1520.78	0.24
1521.14	0.04
1521.51	0.04
1521.87	0.28
1522.24	0.36
1522.6	0.36
1522.96	0.32
1523.33	0.68
1523.69	0.44
1524.06	0.44
1524.42	0.56
1524.78	0.56
1525.15	0.28
1525.51	0.4
1525.88	0.4
1526.24	0.36
1526.6	1.04
1526.97	1.28
1527.33	1.28
1527.69	1.2
1528.06	1.12
1528.42	0.8
1528.79	0.8
1529.15	-0.12
1529.51	0.04
1529.88	0.04
1530.24	0.08
1530.6	-0.04
1530.97	0.8
1531.33	0.64
1531.69	1.04
1532.06	0.8
1532.42	0.64
1532.78	0.68
1533.15	0.68
1533.51	0.4
1533.87	0.68
1534.24	1.12
1534.6	1.08
1534.96	1.28
1535.33	1.2
1535.69	0.92
1536.05	0.64
1536.42	0.64
1536.78	0.44
1537.14	0.44
1537.51	0.36
1537.87	0.4
1538.23	0.52
1538.6	0.64
1538.96	0.6
1539.32	0.52
1539.68	0.6
1540.05	0.44
1540.41	0.32
1540.77	0.32
1541.14	0.32
1541.5	0
1541.86	0.04
1542.23	0.24
1542.59	0.24
1542.95	0.24
1543.31	0.24
1543.68	0.28
1544.04	0.48
1544.4	0.48
1544.76	0.48
1545.13	0.68
1545.49	0.88
1545.85	0.84
1546.21	0.96
1546.58	0.96
1546.94	0.88
1547.3	1.04
1547.66	0.68
1548.03	0.56
1548.39	0.56
1548.75	0.52
1549.11	0.08
1549.48	0.08
1549.84	0.64
1550.2	0.64
1550.56	0.8
1550.93	1.2
1551.29	1.28
1551.65	1
1552.01	1
1552.37	0.84
1552.74	0.48
1553.1	0.44
1553.46	0.52
1553.82	0.8
1554.18	0.96
1554.55	1.04
1554.91	1
1555.27	0.64
1555.63	0.36
1555.99	0.12
1556.36	0.12
1556.72	-1.32
1557.08	-1.32
1557.44	-0.68
1557.8	-0.32
1558.17	-0.12
1558.53	1.56
1558.89	1.56
1559.25	1.28
1559.61	1.2
1559.97	0.88
1560.34	0.64
1560.7	0.8
1561.06	0.84
1561.42	0.56
1561.78	0.68
1562.14	0.28
1562.5	0.32
1562.87	-0.08
1563.23	0.28
1563.59	-0.24
1563.95	0.4
1564.31	0.2
1564.67	0.64
1565.03	0.52
1565.4	0.92
1565.76	0.72
1566.12	0.72
1566.48	0.28
1566.84	0.2
1567.2	0.76
1567.56	0.76
1567.92	0.76
1568.29	0.76
1568.65	0.84
1569.01	0.28
1569.37	-0.16
1569.73	-0.16
1570.09	0.04
1570.45	-0.04
1570.81	-0.04
1571.17	0.36
1571.53	0.52
1571.89	0.32
1572.26	0.2
1572.62	0.36
1572.98	0.36
1573.34	0.28
1573.7	0.6
1574.06	0.8
1574.42	0.64
1574.78	0.44
1575.14	0.48
1575.5	0.16
1575.86	-0.88
1576.22	-0.8
1576.58	-0.4
1576.94	-0.52
1577.3	-0.28
1577.67	0.68
1578.03	0.6
1578.39	0.48
1578.75	0.6
1579.11	0.36
1579.47	0.48
1579.83	0.76
1580.19	0.76
1580.55	0.84
1580.91	0.84
1581.27	0.56
1581.63	0.28
1581.99	0.48
1582.35	0.4
1582.71	0.44
1583.07	0.64
1583.43	0.76
1583.79	0.52
1584.15	0.6
1584.51	0.6
1584.87	0.44
1585.23	0.6
1585.59	0.84
1585.95	0.76
1586.31	1.44
1586.67	1.4
1587.03	1.32
1587.39	1.12
1587.75	1.24
1588.11	0.64
1588.47	1
1588.83	0.8
1589.19	0.72
1589.55	0.76
1589.91	0.64
1590.27	0.28
1590.63	0.44
1590.99	0.84
1591.35	0.68
1591.71	0.92
1592.07	1.04
1592.42	1
1592.78	0.6
1593.14	0.72
1593.5	0.48
1593.86	0.36
1594.22	0.36
1594.58	0.52
1594.94	0.36
1595.3	0.36
1595.66	0.36
1596.02	0.28
1596.38	0.12
1596.74	0.2
1597.1	0.48
1597.46	0.52
1597.81	0.48
1598.17	0.68
1598.53	0.68
1598.89	0.52
1599.25	0.48
1599.61	0.52
1599.97	0.56
1600.33	0.44
1600.69	0.32
1601.05	0.36
1601.4	0.32
1601.76	-0.32
1602.12	-0.36
1602.48	-0.36
1602.84	-0.4
1603.2	-0.16
1603.56	0.32
1603.92	0.4
1604.28	0.6
1604.63	0.6
1604.99	0.64
1605.35	0.68
1605.71	0.76
1606.07	0.56
1606.43	0.64
1606.79	0.36
1607.14	0.28
1607.5	0.12
1607.86	0.12
1608.22	0.04
1608.58	0.04
1608.94	0.32
1609.29	0.56
1609.65	0.44
1610.01	0.64
1610.37	0.8
1610.73	0.48
1611.09	0.32
1611.44	0.92
1611.8	0.84
1612.16	0.84
1612.52	0.88
1612.88	0.8
1613.24	0.52
1613.59	0.48
1613.95	0.44
1614.31	0.4
1614.67	0.52
1615.03	0.56
1615.38	0.48
1615.74	0.56
1616.1	0.96
1616.46	0.88
1616.82	0.72
1617.17	1.12
1617.53	0.92
1617.89	0.64
1618.25	0.88
1618.6	0.8
1618.96	0.64
1619.32	0.68
1619.68	0.72
1620.04	0.6
1620.39	0.64
1620.75	0.64
1621.11	0.72
1621.47	0.72
1621.82	0.6
1622.18	0.72
1622.54	0.6
1622.9	0.48
1623.25	-0.48
1623.61	-0.28
1623.97	-0.44
1624.33	-0.36
1624.68	-0.12
1625.04	1.08
1625.4	0.84
1625.75	0.6
1626.11	0.48
1626.47	0.48
1626.83	0.6
1627.18	0.64
1627.54	0.88
1627.9	0.8
1628.26	0.84
1628.61	0.36
1628.97	0.36
1629.33	0.36
1629.68	0.52
1630.04	0.24
1630.4	-0.32
1630.75	-0.32
1631.11	0.24
1631.47	-0.12
1631.83	-0.12
1632.18	0.4
1632.54	0.6
1632.9	0.04
1633.25	0.32
1633.61	0.32
1633.97	0.4
1634.32	0.24
1634.68	0.24
1635.04	0.24
1635.39	0.44
1635.75	0.56
1636.11	0.56
1636.46	0.6
1636.82	0.52
1637.18	0.48
1637.53	0.28
1637.89	0.32
1638.25	0.28
1638.6	0.4
1638.96	0.32
1639.31	0.68
1639.67	0.56
1640.03	0.8
1640.38	1.04
1640.74	1.4
1641.1	1.04
1641.45	1.16
1641.81	1
1642.16	0.68
1642.52	0.72
1642.88	0.8
1643.23	0.36
1643.59	1.04
1643.95	1.08
1644.3	0.6
1644.66	0.76
1645.01	1.28
1645.37	0.76
1645.73	0.68
1646.08	0.68
1646.44	0.68
1646.79	-0.08
1647.15	-0.04
1647.51	0.24
1647.86	0.32
1648.22	0.12
1648.57	-0.04
1648.93	-0.32
1649.28	-0.56
1649.64	-0.64
1650	-0.6
1650.35	0.2
1650.71	0.2
1651.06	0.2
1651.42	0.2
1651.77	2.10945e-17
1652.13	-0.08
1652.48	0.32
1652.84	0.32
1653.2	0.32
1653.55	0.44
1653.91	0.48
1654.26	0.12
1654.62	0.6
1654.97	0.84
1655.33	1.24
1655.68	1.44
1656.04	1.64
1656.39	1.44
1656.75	1.2
1657.1	0.8
1657.46	0.56
1657.81	0.32
1658.17	0
1658.52	0.4
1658.88	0.52
1659.23	0.56
1659.59	1
1659.94	1.08
1660.3	0.88
1660.65	0.84
1661.01	1.2
1661.36	0.88
1661.72	0.84
1662.07	1
1662.43	0.92
1662.78	0.64
1663.14	0.52
1663.49	0.56
1663.85	0.24
1664.2	0.28
1664.56	0.16
1664.91	-1.64
1665.27	-1.64
1665.62	-1.68
1665.98	-1.72
1666.33	-1.72
1666.69	0.24
1667.04	0.24
1667.39	0.6
1667.75	0.68
1668.1	0.68
1668.46	0.8
1668.81	1.44
1669.17	1.32
1669.52	1.28
1669.88	1.28
1670.23	1.12
1670.58	0.88
1670.94	0.68
1671.29	0.64
1671.65	0.64
1672	0.52
1672.36	0.24
1672.71	0.2
1673.06	0.24
1673.42	0.36
1673.77	0.36
1674.13	0.32
1674.48	0.52
1674.83	0.48
1675.19	0.36
1675.54	0.44
1675.9	0.28
1676.25	0.08
1676.6	0.12
1676.96	0.2
1677.31	0.36
1677.67	0.44
1678.02	0.56
1678.37	0.96
1678.73	0.92
1679.08	0.84
1679.43	1
1679.79	1.04
1680.14	0.8
1680.5	0.16
1680.85	5.55112e-17
1681.2	-0.24
1681.56	-0.36
1681.91	-0.56
1682.26	0.12
1682.62	0.24
1682.97	0.36
1683.32	0.4
1683.68	0.44
1684.03	0.56
1684.38	0.6
1684.74	0.72
1685.09	0.84
1685.44	0.6
1685.8	0.6
1686.15	0.44
1686.5	0.36
1686.86	0.24
1687.21	0.36
1687.56	0.16
1687.92	0.32
1688.27	0.64
1688.62	0.68
1688.98	1
1689.33	1.08
1689.68	1.04
1690.03	1.16
1690.39	1.16
1690.74	1.24
1691.09	1.2
1691.45	1.04
1691.8	0.44
1692.15	0.32
1692.5	0.36
1692.86	0.56
1693.21	0.92
1693.56	0.92
1693.92	0.92
1694.27	-0.04
1694.62	-0.16
1694.97	-0.48
1695.33	-0.28
1695.68	-0.16
1696.03	0.72
1696.38	0.64
1696.74	0.64
1697.09	0.68
1697.44	0.96
1697.79	0.8
1698.15	1.32
1698.5	1.76
1698.85	1.64
1699.2	0.48
1699.56	0.6
1699.91	0.24
1700.26	0.12
1700.61	0.08
1700.97	0.92
1701.32	0.88
1701.67	0.72
1702.02	1.04
1702.37	0.96
1702.73	0.88
1703.08	1.32
1703.43	1.48
1703.78	0.84
1704.13	1.08
1704.49	1.08
1704.84	0.44
1705.19	0.44
1705.54	0.76
1705.89	0.72
1706.25	0.8
1706.6	0.88
1706.95	0.8
1707.3	0.56
1707.65	0.96
1708.01	2.04
1708.36	1.96
1708.71	1.88
1709.06	1.84
1709.41	1.36
1709.76	0.52
1710.12	1
1710.47	1.12
1710.82	1.16
1711.17	1.32
1711.52	1.2
1711.87	1.2
1712.23	1.24
1712.58	1.32
1712.93	1.04
1713.28	0.92
1713.63	0.68
1713.98	0.92
1714.33	0.76
1714.69	1
1715.04	0.92
1715.39	0.88
1715.74	0.64
1716.09	0.64
1716.44	0.56
1716.79	0.64
1717.14	0.88
1717.5	0.68
1717.85	1.04
1718.2	1
1718.55	1.04
1718.9	0.6
1719.25	0.96
1719.6	0.72
1719.95	0.76
1720.3	0.72
1720.65	0.76
1721.01	0.48
1721.36	0.68
1721.71	0.52
1722.06	-0.16
1722.41	-0.24
1722.76	-0.24
1723.11	-0.36
1723.46	-0.36
1723.81	0.48
1724.16	0.64
1724.51	0.68
1724.86	1.04
1725.21	1.16
1725.56	1.08
1725.92	0.96
1726.27	0.84
1726.62	0.52
1726.97	0.76
1727.32	0.28
1727.67	0.32
1728.02	0.52
1728.37	0.48
1728.72	0.12
1729.07	0.48
1729.42	0.6
1729.77	0.56
1730.12	0.52
1730.47	1.32
1730.82	1.28
1731.17	1.64
1731.52	1.72
1731.87	1.56
1732.22	0.96
1732.57	0.96
1732.92	0.8
1733.27	0.68
1733.62	0.92
1733.97	1.12
1734.32	1.16
1734.67	1.2
1735.02	1.2
1735.37	1.4
1735.72	1
1736.07	1.12
1736.42	1.2
1736.77	1.36
1737.12	1
1737.47	1.4
1737.82	1.64
1738.17	1.4
1738.52	1.72
1738.87	1.96
1739.22	1.56
1739.57	1.16
1739.92	0.92
1740.27	0.32
1740.62	0.64
1740.97	0.88
1741.32	1.56
1741.67	2.16
1742.02	2.16
1742.37	1.88
1742.72	1.64
1743.06	1.28
1743.41	1.12
1743.76	1.12
1744.11	-0.4
1744.46	1.11022e-16
1744.81	-0.08
1745.16	-0.28
1745.51	0.4
1745.86	1.72
1746.21	1.72
1746.56	2.08
1746.91	1.96
1747.26	1.6
1747.6	1.6
1747.95	1.64
1748.3	1.64
1748.65	2
1749	2.04
1749.35	2.6
1749.7	2.36
1750.05	1.84
1750.4	1.68
1750.75	1.64
1751.09	1.2
1751.44	1.36
1751.79	0.84
1752.14	0.84
1752.49	0.64
1752.84	1.16
1753.19	1.16
1753.54	1.6
1753.88	1.32
1754.23	1.52
1754.58	0.96
1754.93	1.4
1755.28	1.52
1755.63	1.92
1755.98	1.96
1756.32	1.88
1756.67	1.48
1757.02	1.76
1757.37	1.36
1757.72	1.16
1758.07	1.6
1758.42	1.2
1758.76	1.12
1759.11	0.72
1759.46	0.56
1759.81	3.83028e-17
1760.16	0.44
1760.5	0.32
1760.85	0.48
1761.2	0.56
1761.55	0.64
1761.9	0.44
1762.25	0.36
1762.59	0.92
1762.94	0.84
1763.29	1
1763.64	0.88
1763.99	0.76
1764.33	0.6
1764.68	0.96
1765.03	0.68
1765.38	1.12
1765.73	1.12
1766.07	1.2
1766.42	0.96
1766.77	1.24
1767.12	1.04
1767.46	1.16
1767.81	0.88
1768.16	1.2
1768.51	1.64
1768.85	1.44
1769.2	1.88
1769.55	1.88
1769.9	1.72
1770.25	1
1770.59	0.88
1770.94	0.48
1771.29	0.48
1771.64	0.48
1771.98	0.56
1772.33	0.8
1772.68	0.72
1773.02	1
1773.37	0.92
1773.72	1
1774.07	0.96
1774.41	1
1774.76	1.44
1775.11	1.24
1775.46	1.44
1775.8	1.52
1776.15	1.4
1776.5	0.76
1776.84	0.76
1777.19	0.68
1777.54	0.72
1777.89	0.96
1778.23	1.36
1778.58	1.36
1778.93	1.64
1779.27	1.32
1779.62	1.12
1779.97	0.72
1780.31	0.72
1780.66	0.48
1781.01	0.72
1781.35	0.72
1781.7	0.72
1782.05	0.72
1782.39	0.4
1782.74	0.2
1783.09	0.16
1783.43	0.12
1783.78	0.12
1784.13	0.16
1784.47	-0.32
1784.82	-0.04
1785.17	0.16
1785.51	0.16
1785.86	0.2
1786.21	0.88
1786.55	0.6
1786.9	0.52
1787.25	0.6
1787.59	0.96
1787.94	0.68
1788.29	1.6
1788.63	1.84
1788.98	2.04
1789.32	2
1789.67	2.24
1790.02	1.36
1790.36	1.28
1790.71	1
1791.06	1.28
1791.4	1.24
1791.75	1.4
1792.09	1.52
1792.44	1.4
1792.79	-0.32
1793.13	0.16
1793.48	0.28
1793.82	0.6
1794.17	-1.2
1794.52	0.44
1794.86	0.36
1795.21	0.24
1795.55	-0.32
1795.9	1.84
1796.24	1.8
1796.59	1.8
1796.94	3
1797.28	3.48
1797.63	3.24
1797.97	3.52
1798.32	3.76
1798.66	2.52
1799.01	2.44
1799.36	2.68
1799.7	2.08
1800.05	1.92
1800.39	2
1800.74	1.44
1801.08	3.8
1801.43	5.32
1801.77	5.04
1802.12	5.2
1802.46	6.04
1802.81	3.96
1803.15	2.96
1803.5	3.2
1803.85	3.6
1804.19	3.04
1804.54	3.8
1804.88	3.32
1805.23	3.48
1805.57	3.2
1805.92	5.16
1806.26	5.16
1806.61	6.2
1806.95	6
1807.3	6.44
1807.64	5.8
1807.99	5.6
1808.33	5.12
1808.68	5.6
1809.02	6.6
1809.37	6.76
1809.71	7.88
1810.06	9.6
1810.4	9.8
1810.75	8.16
1811.09	7.72
1811.43	7.8
1811.78	7.88
1812.12	9.24
1812.47	11.28
1812.81	12.92
1813.16	12.4
1813.5	11.84
1813.85	10.56
1814.19	9.48
1814.54	7.6
1814.88	6.8
1815.23	6.76
1815.57	6.64
1815.91	5.72
1816.26	5.8
1816.6	7.8
1816.95	7.56
1817.29	7.4
1817.64	9.76
1817.98	8.4
1818.32	8.56
1818.67	10.92
1819.01	12.36
1819.36	12.16
1819.7	15.08
1820.05	14.44
1820.39	12.96
1820.73	12.04
1821.08	12.12
1821.42	11.56
1821.77	12.52
1822.11	11.64
1822.45	11.56
1822.8	11.96
1823.14	11.48
1823.49	10.12
1823.83	12.24
1824.17	13.72
1824.52	14.28
1824.86	14.96
1825.2	15.28
1825.55	15.28
1825.89	13.76
1826.24	12.12
1826.58	12.84
1826.92	14.24
1827.27	12.08
1827.61	13.84
1827.95	14.36
1828.3	13
1828.64	11.48
1828.98	11.36
1829.33	8.96
1829.67	9.96
1830.02	10.64
1830.36	11.12
1830.7	12.64
1831.05	15.48
1831.39	14.76
1831.73	14.48
1832.08	15.04
1832.42	14.72
1832.76	14.12
1833.1	14.36
1833.45	15.12
1833.79	13
1834.13	11.88
1834.48	10.56
1834.82	10.16
1835.16	10.4
1835.51	13.16
1835.85	13.6
1836.19	15.12
1836.54	13.72
1836.88	12.52
1837.22	9.88
1837.56	8.12
1837.91	5.44
1838.25	5.92
1838.59	7.52
1838.94	7.8
1839.28	10.72
1839.62	12.4
1839.96	12.48
1840.31	10.2
1840.65	9.56
1840.99	6.8
1841.34	7.56
1841.68	8.48
1842.02	9.32
1842.36	10.64
1842.71	12.88
1843.05	11.24
1843.39	9.64
1843.73	10.12
1844.08	9.16
1844.42	9.4
1844.76	9.76
1845.1	11.72
1845.45	9.56
1845.79	10.08
1846.13	9.36
1846.47	8.84
1846.81	7.04
1847.16	7.64
1847.5	7.52
1847.84	7.24
1848.18	7.72
1848.53	8
1848.87	8.2
1849.21	7.32
1849.55	6.48
1849.89	6.2
1850.24	6.64
1850.58	6.68
1850.92	8.24
1851.26	8.28
1851.6	7.92
1851.95	6.8
1852.29	6.24
1852.63	4.76
1852.97	5.32
1853.31	4.4
1853.66	4.44
1854	4.64
1854.34	5.2
1854.68	3.8
1855.02	5.12
1855.36	5.32
1855.71	5.16
1856.05	4.52
1856.39	4.52
1856.73	3.72
1857.07	3.08
1857.41	2.48
1857.76	1.88
1858.1	1.56
1858.44	1
1858.78	0.84
1859.12	1.36
1859.46	1.84
1859.8	2.48
1860.15	2.48
1860.49	3.04
1860.83	2.56
1861.17	3.12
1861.51	2.96
1861.85	3.04
1862.19	2.24
1862.53	2.48
1862.88	1.36
1863.22	0.84
1863.56	0.68
1863.9	0.88
1864.24	0.64
1864.58	0.52
1864.92	0.76
1865.26	1.04
1865.6	0.96
1865.94	1.28
1866.29	1.36
1866.63	1.08
1866.97	1.28
1867.31	1.28
1867.65	0.88
1867.99	1.12
1868.33	1.12
1868.67	0.64
1869.01	0.56
1869.35	-0.36
1869.69	-0.64
1870.03	-0.28
1870.37	0.08
1870.72	0.2
1871.06	1.28
1871.4	1.32
1871.74	1.08
1872.08	0.92
1872.42	1.04
1872.76	1.04
1873.1	1.44
1873.44	1.44
1873.78	0.88
1874.12	0.88
1874.46	0.4
1874.8	-0.08
1875.14	-0.08
1875.48	0.68
1875.82	0.76
1876.16	0.96
1876.5	1.12
1876.84	1.08
1877.18	0.64
1877.52	-0.12
1877.86	-0.12
1878.2	-0.32
1878.54	-1
1878.88	-0.88
1879.22	-0.12
1879.56	-0.12
1879.9	-0.72
1880.24	-0.12
1880.58	-0.36
1880.92	-0.4
1881.26	-0.4
1881.6	0.2
1881.94	0.44
1882.28	1.24
1882.62	0.92
1882.96	1.16
1883.3	1.36
1883.64	1.28
1883.98	0.68
1884.32	0.96
1884.66	1.04
1885	1
1885.34	1.24
1885.68	1.28
1886.02	1.4
1886.36	1.32
1886.7	1.2
1887.04	1.24
1887.38	1.28
1887.72	1.16
1888.06	0.52
1888.39	1.28
1888.73	1.04
1889.07	1.4
1889.41	1.36
1889.75	1.4
1890.09	1
1890.43	1
1890.77	0.72
1891.11	1.08
1891.45	1.88
1891.79	1.68
1892.13	1.48
1892.47	1.6
1892.8	1
1893.14	0.8
1893.48	0.72
1893.82	1.08
1894.16	0.72
1894.5	1.2
1894.84	1.6
1895.18	1.96
1895.52	2.16
1895.86	3.36
1896.19	3
1896.53	2.36
1896.87	2.08
1897.21	1.8
1897.55	0.92
1897.89	1.44
1898.23	2.16
1898.57	2.4
1898.9	2.44
1899.24	2.6
1899.58	2.24
1899.92	1.76
1900.26	1.68
1900.6	1.6
1900.94	1.48
1901.27	1.8
1901.61	2
1901.95	2.24
1902.29	2.72
1902.63	2.48
1902.97	2.72
1903.3	2.64
1903.64	2.16
1903.98	2.44
1904.32	2.72
1904.66	3.52
1905	3.92
1905.33	3.96
1905.67	3.84
1906.01	4.44
1906.35	4.2
1906.69	4.12
1907.02	4.92
1907.36	5
1907.7	5.24
1908.04	4.44
1908.38	4.44
1908.71	5.56
1909.05	5.12
1909.39	5.04
1909.73	5.72
1910.07	5.24
1910.4	4.48
1910.74	5.24
1911.08	5.28
1911.42	5.48
1911.76	6.84
1912.09	7.28
1912.43	6.56
1912.77	7.4
1913.11	7.56
1913.44	7.68
1913.78	6.48
1914.12	7
1914.46	6
1914.79	6.08
1915.13	5.68
1915.47	6.48
1915.81	6.76
1916.14	7.92
1916.48	8
1916.82	9.2
1917.16	9.16
1917.49	9.24
1917.83	7.52
1918.17	7
1918.5	6.44
1918.84	7.52
1919.18	7.72
1919.52	9.36
1919.85	10.6
1920.19	9.96
1920.53	9.4
1920.87	10.52
1921.2	10.76
1921.54	9.44
1921.88	9.76
1922.21	10.48
1922.55	9.32
1922.89	9.36
1923.22	10
1923.56	10.72
1923.9	10.08
1924.23	9.36
1924.57	8.32
1924.91	8.76
1925.25	8.64
1925.58	10.24
1925.92	11.88
1926.26	12.04
1926.59	11.24
1926.93	11.52
1927.27	10.32
1927.6	10.68
1927.94	11.8
1928.28	12.04
1928.61	12.48
1928.95	11.96
1929.29	11.68
1929.62	11.68
1929.96	12.08
1930.29	11.08
1930.63	11.56
1930.97	10.84
1931.3	9.6
1931.64	10
1931.98	9.68
1932.31	8.48
1932.65	8.44
1932.99	9.28
1933.32	8.2
1933.66	8
1933.99	9.12
1934.33	9.88
1934.67	9.4
1935	9.24
1935.34	8.92
1935.67	8.52
1936.01	7.12
1936.35	6.68
1936.68	6.36
1937.02	6.56
1937.35	6.48
1937.69	6.24
1938.03	6.88
1938.36	5.44
1938.7	5.36
1939.03	4.8
1939.37	5.44
1939.7	4.28
1940.04	5.72
1940.38	5.16
1940.71	5.2
1941.05	4.72
1941.38	4.68
1941.72	4.88
1942.05	5.32
1942.39	5.48
1942.73	6
1943.06	6.16
1943.4	6.56
1943.73	6.12
1944.07	6.2
1944.4	5.36
1944.74	5.48
1945.07	4.28
1945.41	5.08
1945.74	3.92
1946.08	4.48
1946.42	4.2
1946.75	3.96
1947.09	3.28
1947.42	3.76
1947.76	2.92
1948.09	2.68
1948.43	3.4
1948.76	3.56
1949.1	4.28
1949.43	4.24
1949.77	4.32
1950.1	3.6
1950.44	2.76
1950.77	1.72
1951.11	2.28
1951.44	2.4
1951.78	2.4
1952.11	3.8
1952.45	3.68
1952.78	3.44
1953.12	3.12
1953.45	3
1953.79	2.16
1954.12	2.12
1954.46	1.72
1954.79	1.76
1955.12	2.16
1955.46	1.76
1955.79	1.8
1956.13	1.8
1956.46	1.48
1956.8	0.72
1957.13	0.48
1957.47	0.72
1957.8	0.4
1958.14	0.68
1958.47	1.48
1958.8	1.96
1959.14	1.44
1959.47	1.76
1959.81	1.84
1960.14	1.88
1960.48	1.48
1960.81	1.48
1961.14	1.6
1961.48	1.12
1961.81	1.04
1962.15	0.96
1962.48	0.92
1962.82	0.44
1963.15	0.44
1963.48	0.24
1963.82	0.52
1964.15	0.64
1964.49	0.6
1964.82	0.68
1965.15	0.68
1965.49	0.52
1965.82	0.76
1966.16	0.76
1966.49	0.8
1966.82	0.84
1967.16	1.2
1967.49	0.96
1967.83	1.04
1968.16	1
1968.49	0.8
1968.83	0.4
1969.16	0.28
1969.49	0.24
1969.83	0.52
1970.16	0.64
1970.49	0.76
1970.83	0.76
1971.16	0.76
1971.5	0
1971.83	1.44334e-17
1972.16	-0.04
1972.5	-0.04
1972.83	-0.08
1973.16	0.48
1973.5	0.36
1973.83	0.2
1974.16	0.64
1974.5	0.44
1974.83	0.44
1975.16	0.72
1975.5	0.72
1975.83	0.32
1976.16	0.64
1976.49	0.6
1976.83	0.44
1977.16	0.6
1977.49	0.64
1977.83	0.52
1978.16	0.64
1978.49	0.6
1978.83	0.52
1979.16	0.96
1979.49	1.4
1979.83	1.64
1980.16	1.68
1980.49	1.64
1980.82	1.32
1981.16	0.96
1981.49	0.84
1981.82	0.52
1982.15	0.68
1982.49	1.12
1982.82	1.56
1983.15	1.96
1983.49	2.4
1983.82	2.68
1984.15	2.04
1984.48	1.52
1984.82	0.84
1985.15	1.12
1985.48	0.64
1985.81	0.64
1986.15	1.08
1986.48	1.48
1986.81	1.2
1987.14	1.84
1987.48	1.84
1987.81	1.64
1988.14	2.16
1988.47	2.6
1988.81	2.68
1989.14	3
1989.47	2.92
1989.8	2.44
1990.13	2.24
1990.47	1.56
1990.8	1.24
1991.13	1.56
1991.46	2
1991.79	1.32
1992.13	1.44
1992.46	1.52
1992.79	1.36
1993.12	1.36
1993.45	1
1993.79	0.96
1994.12	1.52
1994.45	1.84
1994.78	1.24
1995.11	1.92
1995.45	2.04
1995.78	1.84
1996.11	1.44
1996.44	1.4
1996.77	1.68
1997.1	1.96
1997.44	1.56
1997.77	1.68
1998.1	1.76
1998.43	2
1998.76	1.88
1999.09	2.12
1999.43	1.12
1999.76	1.44
2000.09	1.32
2000.42	1.96
2000.75	2.4
2001.08	3.56
2001.41	2.96
2001.75	2.84
2002.08	2.32
2002.41	1.76
2002.74	2.4
2003.07	2.56
2003.4	2.88
2003.73	3.04
2004.06	3.28
2004.4	2.48
2004.73	2.36
2005.06	2.04
2005.39	1.84
2005.72	1.48
2006.05	2.28
2006.38	2.88
2006.71	3.12
2007.04	3
2007.37	3.2
2007.71	3.04
2008.04	2.96
2008.37	2.88
2008.7	2.64
2009.03	3.24
2009.36	2.88
2009.69	2.88
2010.02	2.4
2010.35	2.8
2010.68	2.64
2011.01	2.76
2011.34	2.32
2011.67	2.76
2012.01	2.76
2012.34	2.44
2012.67	2.4
2013	2.36
2013.33	2.72
2013.66	3
2013.99	3.12
2014.32	3.32
2014.65	3.12
2014.98	2.64
2015.31	2.16
2015.64	2.08
2015.97	1.48
2016.3	2.56
2016.63	2.48
2016.96	2.6
2017.29	2.32
2017.62	3.24
2017.95	2.6
2018.28	3
2018.61	2.6
2018.94	2.52
2019.27	1.72
2019.6	2.04
2019.93	1.44
2020.26	2.52
2020.59	2.6
2020.92	2.24
2021.25	1.68
2021.58	1.56
2021.91	1.04
2022.24	1.28
2022.57	1.4
2022.9	1.2
2023.23	1.48
2023.56	0.88
2023.89	0.52
2024.22	0.52
2024.55	0.76
2024.88	0.44
2025.21	1.32
2025.54	1.24
2025.87	1.48
2026.2	1.28
2026.53	1.36
2026.86	0.6
2027.19	0.68
2027.52	0.48
2027.85	0.72
2028.18	0.84
2028.51	0.88
2028.84	1
2029.16	1
2029.49	0.72
2029.82	0.76
2030.15	0.68
2030.48	0.08
2030.81	-0.16
2031.14	0.16
2031.47	0.68
2031.8	0.72
2032.13	1.2
2032.46	1.76
2032.79	1.72
2033.12	0.96
2033.44	0.92
2033.77	0.92
2034.1	0.56
2034.43	0.28
2034.76	0.32
2035.09	0.24
2035.42	0.28
2035.75	0.24
2036.08	0.24
2036.41	0.28
2036.73	0.28
2037.06	0.4
2037.39	0.24
2037.72	0.28
2038.05	0.44
2038.38	0.44
2038.71	0.72
2039.04	-0.28
2039.36	0.36
2039.69	0.12
2040.02	-0.24
2040.35	-0.68
2040.68	0.32
2041.01	-0.24
2041.34	-0.44
2041.66	-0.08
2041.99	-0.08
2042.32	-0.08
2042.65	-0.08
2042.98	0.16
2043.31	0.16
2043.63	0.16
2043.96	0.4
2044.29	0.28
2044.62	0.28
2044.95	0.6
2045.28	0.76
2045.6	0.84
2045.93	0.96
2046.26	1.04
2046.59	0.72
2046.92	0.56
2047.24	0.28
2047.57	0.2
2047.9	0.48
2048.23	0.48
2048.56	0.64
2048.88	0.68
2049.21	0.76
2049.54	0.48
2049.87	0.68
2050.2	0.68
2050.52	0.72
2050.85	0.84
2051.18	0.76
2051.51	0.8
2051.83	0.92
2052.16	0.84
2052.49	0.6
2052.82	1.2
2053.15	1
2053.47	0.72
2053.8	0.88
2054.13	1.16
2054.46	0.6
2054.78	0.56
2055.11	0.76
2055.44	0.36
2055.77	0.56
2056.09	0.56
2056.42	0.56
2056.75	0.76
2057.08	1.16
2057.4	0.68
2057.73	0.92
2058.06	1
2058.38	1.16
2058.71	1.48
2059.04	1.92
2059.37	1.68
2059.69	2.2
2060.02	1.88
2060.35	1.64
2060.67	1.48
2061	1.4
2061.33	0.64
2061.66	0.64
2061.98	0.36
2062.31	0.2
2062.64	0.4
2062.96	0.8
2063.29	0.92
2063.62	1.04
2063.94	0.92
2064.27	0.84
2064.6	0.04
2064.92	-0.32
2065.25	-0.24
2065.58	1.33221e-17
2065.91	-0.12
2066.23	0.64
2066.56	0.64
2066.89	0.44
2067.21	0.2
2067.54	0.76
2067.87	0.56
2068.19	0.76
2068.52	1
2068.84	1.4
2069.17	0.88
2069.5	0.96
2069.82	0.56
2070.15	0.52
2070.48	0.12
2070.8	0.08
2071.13	0.52
2071.46	0.96
2071.78	0.88
2072.11	1.04
2072.43	1.04
2072.76	0.52
2073.09	0.48
2073.41	0.36
2073.74	0.2
2074.07	0.32
2074.39	0.36
2074.72	0.16
2075.04	0.32
2075.37	0.52
2075.7	0.52
2076.02	0.48
2076.35	0.68
2076.67	0.68
2077	0.68
2077.33	0.92
2077.65	1.16
2077.98	1.32
2078.3	1.28
2078.63	1.08
2078.95	0.8
2079.28	0.68
2079.61	-0.28
2079.93	-0.28
2080.26	0.24
2080.58	0.32
2080.91	0.48
2081.23	1.16
2081.56	1.04
2081.89	0.56
2082.21	0.4
2082.54	0.12
2082.86	0.28
2083.19	0.36
2083.51	0.32
2083.84	0.52
2084.16	0.52
2084.49	0.6
2084.81	1.24
2085.14	1.28
2085.46	1.16
2085.79	1.52
2086.12	1.36
2086.44	0.84
2086.77	0.8
2087.09	1.04
2087.42	0.8
2087.74	0.92
2088.07	0.88
2088.39	0.92
2088.72	0.6
2089.04	0.84
2089.37	0.56
2089.69	0.4
2090.02	0.36
2090.34	0.32
2090.67	-0.04
2090.99	-2
2091.32	-1.72
2091.64	-1.6
2091.97	-1.52
2092.29	-1.36
2092.62	0.6
2092.94	0.52
2093.26	0.48
2093.59	0.44
2093.91	-0.92
2094.24	-0.6
2094.56	-0.48
2094.89	-0.44
2095.21	-0.32
2095.54	0.92
2095.86	0.76
2096.19	0.52
2096.51	0.44
2096.84	0.44
2097.16	0.6
2097.48	0.64
2097.81	0.56
2098.13	0.56
2098.46	0.44
2098.78	0.28
2099.11	0.52
2099.43	1.36
2099.75	1.44
2100.08	1.96
2100.4	2
2100.73	1.56
2101.05	0.72
2101.38	0.6
2101.7	0.08
2102.02	0.76
2102.35	0.76
2102.67	0.76
2103	0.96
2103.32	1.28
2103.64	0.88
2103.97	0.88
2104.29	0.88
2104.62	0.68
2104.94	0.4
2105.26	-2.99748e-17
2105.59	0.12
2105.91	0.12
2106.23	0.12
2106.56	0.2
2106.88	0.24
2107.21	0.12
2107.53	0.2
2107.85	0.28
2108.18	0.24
2108.5	0.72
2108.82	0.76
2109.15	0.84
2109.47	0.76
2109.79	0.72
2110.12	0.36
2110.44	0.32
2110.76	0.52
2111.09	1.16
2111.41	1.32
2111.73	1.44
2112.06	1.44
2112.38	1.08
2112.7	0.16
2113.03	0.24
2113.35	0.36
2113.67	0.6
2114	0.76
2114.32	1.24
2114.64	1
2114.97	0.64
2115.29	0.4
2115.61	0.32
2115.94	0.24
2116.26	0.36
2116.58	0.48
2116.91	-0.32
2117.23	-0.36
2117.55	-0.4
2117.87	-0.56
2118.2	-0.68
2118.52	0.12
2118.84	0.2
2119.17	0.16
2119.49	0.16
2119.81	0.32
2120.13	0.52
2120.46	0.4
2120.78	-0.56
2121.1	-0.56
2121.42	-0.72
2121.75	-0.88
2122.07	-0.84
2122.39	0.2
2122.72	0.32
2123.04	0.68
2123.36	0.88
2123.68	1.16
2124.01	1.08
2124.33	1.88
2124.65	1.84
2124.97	2.2
2125.29	1.88
2125.62	1.84
2125.94	1.12
2126.26	1.12
2126.58	0.6
2126.91	-0.24
2127.23	0.12
2127.55	-0.08
2127.87	-0.4
2128.2	-0.48
2128.52	0.48
2128.84	0.12
2129.16	0.24
2129.48	0.4
2129.81	0.4
2130.13	0.68
2130.45	0.72
2130.77	0.6
2131.09	0.52
2131.42	0.96
2131.74	0.72
2132.06	1.32
2132.38	1.52
2132.7	1.44
2133.02	1.4
2133.35	1.36
2133.67	0.88
2133.99	0.68
2134.31	0.08
2134.63	0.08
2134.96	0.12
2135.28	-0.04
2135.6	0.04
2135.92	1.04
2136.24	0.64
2136.56	0.72
2136.88	0.96
2137.21	1.04
2137.53	0.68
2137.85	0.92
2138.17	0.2
2138.49	-0.04
2138.81	-0.16
2139.13	0.04
2139.46	0
2139.78	0.8
2140.1	0.8
2140.42	0.76
2140.74	0.68
2141.06	0.52
2141.38	0.36
2141.7	0.36
2142.03	0.48
2142.35	0.32
2142.67	0.44
2142.99	0.28
2143.31	0.28
2143.63	0.32
2143.95	0.36
2144.27	0.56
2144.59	0.64
2144.91	0.44
2145.24	0.44
2145.56	0.4
2145.88	0.04
2146.2	0.12
2146.52	0.32
2146.84	0.16
2147.16	0.16
2147.48	0.28
2147.8	0.36
2148.12	0.48
2148.44	0.76
2148.76	0.84
2149.08	0.72
2149.41	0.52
2149.73	0.4
2150.05	0.12
2150.37	0.56
2150.69	0.6
2151.01	0.64
2151.33	0.8
2151.65	0.84
2151.97	0.44
2152.29	0.56
2152.61	0.12
2152.93	-1.72083e-17
2153.25	-0.04
2153.57	0.4
2153.89	0.24
2154.21	0.24
2154.53	0.4
2154.85	0.6
2155.17	0.12
2155.49	0.32
2155.81	0.72
2156.13	0.56
2156.45	0.52
2156.77	0.44
2157.09	0.44
2157.41	0.64
2157.73	0.68
2158.05	0.96
2158.37	1.08
2158.69	0.92
2159.01	0.68
2159.33	0.68
2159.65	0.24
2159.97	0.44
2160.29	0.56
2160.61	0.68
2160.93	1.04
2161.25	1.04
2161.57	0.8
2161.89	0.72
2162.21	0.6
2162.53	0.16
2162.85	-0.44
2163.17	-0.52
2163.49	-0.32
2163.81	-0.28
2164.13	-0.16
2164.45	-0.16
2164.77	0.08
2165.08	0.04
2165.4	0.4
2165.72	0.44
2166.04	1.04
2166.36	0.88
2166.68	0.64
2167	0.28
2167.32	0.12
2167.64	0.12
2167.96	0.16
2168.28	0.16
2168.6	0.48
2168.92	0.52
2169.24	0.6
2169.55	0.48
2169.87	0.48
2170.19	0.12
2170.51	0.4
2170.83	0.96
2171.15	0.96
2171.47	0.96
2171.79	1.16
2172.11	0.84
2172.43	0.2
2172.74	0.2
2173.06	0.2
2173.38	0
2173.7	0.32
2174.02	0.32
2174.34	0.4
2174.66	0.68
2174.98	0.92
2175.29	0.68
2175.61	0.68
2175.93	0.76
2176.25	0.48
2176.57	0.8
2176.89	0.72
2177.21	1.16
2177.52	1.32
2177.84	1.36
2178.16	0.8
2178.48	0.8
2178.8	0.36
2179.12	0.2
2179.43	0.24
2179.75	-0.76
2180.07	-0.76
2180.39	-0.76
2180.71	-0.92
2181.03	-1
2181.34	0
2181.66	0.24
2181.98	0.24
2182.3	0.76
2182.62	0.92
2182.93	0.52
2183.25	0.28
2183.57	0.76
2183.89	0.24
2184.21	0.12
2184.52	0.6
2184.84	0.64
2185.16	0.16
2185.48	0.24
2185.8	0.32
2186.11	0.24
2186.43	0.28
2186.75	0.48
2187.07	0.4
2187.39	-0.4
2187.7	-0.2
2188.02	-0.84
2188.34	-0.64
2188.66	-0.64
2188.97	0.04
2189.29	-0.04
2189.61	0.52
2189.93	0.12
2190.24	0.12
2190.56	0.44
2190.88	0.32
2191.2	0.56
2191.51	0.64
2191.83	0.72
2192.15	0.44
2192.47	0.44
2192.78	0.28
2193.1	0.32
2193.42	0.28
2193.74	0.44
2194.05	0.44
2194.37	0.36
2194.69	0.76
2195	0.44
2195.32	0.32
2195.64	0.52
2195.96	0.68
2196.27	0.2
2196.59	-0.04
2196.91	0.04
2197.22	-0.04
2197.54	-0.2
2197.86	-0.12
2198.18	0.64
2198.49	0.52
2198.81	0.64
2199.13	0.68
2199.44	0.6
2199.76	0.44
2200.08	0.4
2200.39	0.24
2200.71	0.28
2201.03	0.24
2201.34	0.36
2201.66	0.48
2201.98	0.4
2202.29	0.56
2202.61	0.76
2202.93	0.8
2203.24	0.8
2203.56	1.08
2203.88	0.88
2204.19	0.96
2204.51	1.2
2204.83	1.2
2205.14	1.04
2205.46	1.08
2205.78	0.84
2206.09	0.68
2206.41	0.4
2206.72	0.44
2207.04	0.44
2207.36	0.04
2207.67	-0.28
2207.99	2.05389e-17
2208.31	-0.16
2208.62	-0.24
2208.94	0.32
2209.25	0.32
2209.57	0.36
2209.89	0.68
2210.2	0.92
2210.52	0.72
2210.83	0.72
2211.15	0.6
2211.47	0.44
2211.78	0.2
2212.1	-0.2
2212.41	-0.08
2212.73	-0.12
2213.05	-0.2
2213.36	-0.12
2213.68	0.36
2213.99	0.44
2214.31	0.56
2214.62	0.48
2214.94	0.44
2215.26	0.48
2215.57	0.36
2215.89	0.28
2216.2	0.28
2216.52	0.36
2216.83	0.48
2217.15	0.64
2217.46	0.64
2217.78	0.64
2218.1	0.8
2218.41	0.6
2218.73	0.52
2219.04	0.72
2219.36	0.72
2219.67	0.44
2219.99	0.76
2220.3	0.6
2220.62	0.6
2220.93	0.6
2221.25	0.92
2221.56	0.64
2221.88	0.84
2222.19	0.96
2222.51	1.04
2222.82	-0.68
2223.14	-0.72
2223.45	-0.92
2223.77	-1.08
2224.08	-1.16
2224.4	0.36
2224.71	0.4
2225.03	0.44
2225.34	0.24
2225.66	-1.04
2225.97	-1.08
2226.29	-1.16
2226.6	-1.2
2226.92	-1.04
2227.23	0.44
2227.55	0.6
2227.86	0.76
2228.18	0.8
2228.49	0.76
2228.81	0.76
2229.12	0.52
2229.44	0.48
2229.75	0.64
2230.07	0.88
2230.38	0.68
2230.69	0.68
2231.01	0.6
2231.32	0.52
2231.64	0.16
2231.95	0.16
2232.27	0.24
2232.58	0.36
2232.9	0.44
2233.21	0.76
2233.52	0.76
2233.84	0.68
2234.15	0.72
2234.47	0.52
2234.78	0.64
2235.1	0.64
2235.41	0.64
2235.72	0.6
2236.04	0.72
2236.35	0.36
2236.67	-0.24
2236.98	-0.08
2237.29	-0.04
2237.61	-0.16
2237.92	-0.16
2238.24	0.56
2238.55	0.56
2238.86	0.4
2239.18	0.64
2239.49	-0.24
2239.8	-0.36
2240.12	-0.52
2240.43	-0.56
2240.75	-0.52
2241.06	0.76
2241.37	0.92
2241.69	1.24
2242	1.24
2242.31	1
2242.63	0.88
2242.94	0.72
2243.26	0.12
2243.57	0.36
2243.88	0.36
2244.2	0.16
2244.51	0.16
2244.82	1.36
2245.14	1.28
2245.45	1.4
2245.76	1.32
2246.08	1.48
2246.39	0.72
2246.7	0.56
2247.02	0.4
2247.33	0.32
2247.64	0.16
2247.96	0
2248.27	0
2248.58	-0.96
2248.9	-0.72
2249.21	-0.64
2249.52	-0.56
2249.83	-0.56
2250.15	0.68
2250.46	0.56
2250.77	0.68
2251.09	0.8
2251.4	0.8
2251.71	0.68
2252.03	0.92
2252.34	1
2252.65	0.92
2252.96	0.92
2253.28	0.76
2253.59	0.84
2253.9	1.08
2254.21	0.96
2254.53	1.28
2254.84	1.24
2255.15	0.8
2255.47	0.28
2255.78	0.52
2256.09	0.4
2256.4	0.48
2256.72	0.84
2257.03	1.04
2257.34	0.84
2257.65	0.92
2257.97	1.28
2258.28	1.56
2258.59	1.4
2258.9	1.48
2259.22	1.4
2259.53	1.36
2259.84	0.72
2260.15	0.72
2260.46	0.6
2260.78	0.44
2261.09	0.12
2261.4	0.16
2261.71	0.32
2262.03	0.72
2262.34	0.76
2262.65	0.84
2262.96	0.88
2263.27	0.76
2263.59	0.44
2263.9	0.64
2264.21	0.52
2264.52	0.52
2264.83	0.64
2265.15	0.68
2265.46	0.4
2265.77	0.72
2266.08	0.76
2266.39	0.68
2266.7	0.68
2267.02	0.68
2267.33	-4.21755e-17
2267.64	-0.12
2267.95	-0.04
2268.26	0.04
2268.57	0.04
2268.89	0.64
2269.2	0.64
2269.51	0.68
2269.82	0.76
2270.13	0.76
2270.44	1
2270.76	0.6
2271.07	0.72
2271.38	-0.12
2271.69	-0.08
2272	-0.12
2272.31	0.08
2272.62	-0.96
2272.93	0.32
2273.25	0.28
2273.56	0.28
2273.87	0.56
2274.18	1.48
2274.49	0.84
2274.8	0.96
2275.11	0.84
2275.42	0.8
2275.74	0.72
2276.05	0.92
2276.36	0.8
2276.67	0.56
2276.98	0.8
2277.29	0.76
2277.6	0.56
2277.91	0.56
2278.22	0.12
2278.53	-0.16
2278.85	-0.28
2279.16	-1.32
2279.47	-1
2279.78	-0.44
2280.09	-0.44
2280.4	-0.24
2280.71	0.72
2281.02	0.4
2281.33	0.2
2281.64	0.36
2281.95	0.16
2282.26	0.2
2282.57	0.2
2282.88	0.2
2283.19	0.04
2283.5	0.4
2283.82	0.56
2284.13	0.64
2284.44	0.68
2284.75	0.36
2285.06	0.12
2285.37	0.64
2285.68	0.56
2285.99	0.92
2286.3	1.24
2286.61	1.52
2286.92	0.92
2287.23	1.08
2287.54	1
2287.85	1.04
2288.16	0.88
2288.47	1.08
2288.78	1.12
2289.09	0.84
2289.4	0.96
2289.71	0.72
2290.02	0.48
2290.33	0.32
2290.64	0.28
2290.95	-0.08
2291.26	0.24
2291.57	0.32
2291.88	-0.04
2292.19	-0.04
2292.5	0.16
2292.81	-0.16
2293.12	-0.32
2293.43	0
2293.74	0
2294.05	0
2294.36	0
2294.67	0
2294.98	0
2295.29	0
2295.6	0
2295.91	0
2296.21	0
2296.52	0
2296.83	0
2297.14	0
2297.45	0
2297.76	0
2298.07	0
2298.38	0
2298.69	0
2299	0
2299.31	0
2299.62	0
2299.93	0
2300.24	0
2300.55	0
2300.85	0
2301.16	0
2301.47	0
2301.78	0
2302.09	0
2302.4	0
2302.71	0
2303.02	0
2303.33	0
2303.64	0
2303.94	0
2304.25	0
2304.56	0
2304.87	0
2305.18	0
2305.49	0
2305.8	0
2306.11	0
2306.42	0
2306.72	0
2307.03	0
2307.34	0
2307.65	0
2307.96	0
2308.27	0
2308.58	0
2308.88	0
2309.19	0
2309.5	0
2309.81	0
2310.12	0
2310.43	0
2310.74	0
2311.04	0
2311.35	0
2311.66	0
2311.97	0
2312.28	0
2312.59	0
2312.89	0
2313.2	0
2313.51	0
2313.82	0
2314.13	0
2314.43	0
2314.74	0
2315.05	0
2315.36	0
2315.67	0
2315.97	0
2316.28	0
2316.59	0
2316.9	0
2317.21	0
2317.51	0
2317.82	0
2318.13	0
2318.44	0
2318.75	0
2319.05	0
2319.36	0
2319.67	0
2319.98	0
2320.28	0
2320.59	0
2320.9	0
2321.21	0
2321.51	0
2321.82	0
2322.13	0
2322.44	0
2322.74	0
2323.05	0
2323.36	0
2323.67	0
2323.97	0
2324.28	0
2324.59	0
2324.9	0
2325.2	0
2325.51	0
2325.82	0
2326.13	0
2326.43	0
2326.74	0
2327.05	0
2327.35	0
2327.66	0
2327.97	0
2328.27	0
2328.58	0
2328.89	0
2329.2	0
2329.5	0
2329.81	0
2330.12	0
2330.42	0
2330.73	0
2331.04	0
2331.34	0
2331.65	0
2331.96	0
2332.26	0
2332.57	0
2332.88	0
2333.18	0
2333.49	0
2333.8	0
2334.1	0
2334.41	0
2334.72	0
2335.02	0
2335.33	0
2335.64	0
2335.94	0
2336.25	0
2336.56	0
2336.86	0
2337.17	0
2337.48	0
2337.78	0
2338.09	0
2338.39	0
2338.7	0
2339.01	0
2339.31	0
2339.62	0
2339.93	0
2340.23	0
2340.54	0
2340.84	0
2341.15	0
2341.46	0
2341.76	0
2342.07	0
2342.37	0
2342.68	0
2342.99	0
2343.29	0
2343.6	0
2343.9	0
2344.21	0
2344.51	0
2344.82	0
2345.13	0
2345.43	0
2345.74	0
2346.04	0
2346.35	0
2346.65	0
2346.96	0
2347.27	0
2347.57	0
2347.88	0
2348.18	0
2348.49	0
2348.79	0
2349.1	0
2349.4	0
2349.71	0
2350.01	0
2350.32	0
2350.63	0
2350.93	0
2351.24	0
2351.54	0
2351.85	0
2352.15	0
2352.46	0
2352.76	0
2353.07	0
2353.37	0
2353.68	0
2353.98	0
2354.29	0
2354.59	0
2354.9	0
2355.2	0
2355.51	0
2355.81	0
2356.12	0
2356.42	0
2356.73	0
2357.03	0
2357.34	0
2357.64	0
2357.95	0
2358.25	0
2358.55	0
2358.86	0
2359.16	0
2359.47	0
2359.77	0
2360.08	0
2360.38	0
2360.69	0
2360.99	0
2361.3	0
2361.6	0
2361.9	0
2362.21	0
2362.51	0
2362.82	0
2363.12	0
2363.43	0
2363.73	0
2364.04	0
2364.34	0
2364.64	0
2364.95	0
2365.25	0
2365.56	0
2365.86	0
2366.16	0
2366.47	0
2366.77	0
2367.08	0
2367.38	0
2367.68	0
2367.99	0
2368.29	0
2368.6	0
2368.9	0
2369.2	0
2369.51	0
2369.81	0
2370.12	0
2370.42	0
2370.72	0
2371.03	0
2371.33	0
2371.63	0
2371.94	0
2372.24	0
2372.55	0
2372.85	0
2373.15	0
2373.46	0
2373.76	0
2374.06	0
2374.37	0
2374.67	0
2374.97	0
2375.28	0
2375.58	0
2375.88	0
2376.19	0
2376.49	0
2376.79	0
2377.1	0
2377.4	0
2377.7	0
2378.01	0
2378.31	0
2378.61	0
2378.92	0
2379.22	0
2379.52	0
2379.82	0
2380.13	0
2380.43	0
2380.73	0
2381.04	0
2381.34	0
2381.64	0
2381.95	0
2382.25	0
2382.55	0
2382.85	0
2383.16	0
2383.46	0
2383.76	0
2384.06	0
2384.37	0
2384.67	0
2384.97	0
2385.28	0
2385.58	0
2385.88	0
2386.18	0
2386.49	0
2386.79	0
2387.09	0
2387.39	0
2387.69	0
2388	0
2388.3	0
2388.6	0
2388.9	0
2389.21	0
2389.51	0
2389.81	0
2390.11	0
2390.42	0
2390.72	0
2391.02	0
2391.32	0
2391.62	0
2391.93	0
2392.23	0
2392.53	0
2392.83	0
2393.13	0
2393.44	0
2393.74	0
2394.04	0
2394.34	0
2394.64	0
2394.95	0
2395.25	0
2395.55	0
2395.85	0
2396.15	0
2396.45	0
2396.76	0
2397.06	0
2397.36	0
2397.66	0
2397.96	0
2398.26	0
2398.57	0
2398.87	0
2399.17	0
2399.47	0
2399.77	0
2400.07	0
2400.37	0
2400.68	0
2400.98	0
2401.28	0
2401.58	0
2401.88	0
2402.18	0
2402.48	0
2402.79	0
2403.09	0
2403.39	0
2403.69	0
2403.99	0
2404.29	0
2404.59	0
2404.89	0
2405.19	0
2405.5	0
2405.8	0
2406.1	0
2406.4	0
2406.7	0
2407	0
2407.3	0
2407.6	0
2407.9	0
2408.2	0
2408.5	0
2408.8	0
2409.11	0
2409.41	0
2409.71	0
2410.01	0
2410.31	0
2410.61	0
2410.91	0
2411.21	0
2411.51	0
2411.81	0
2412.11	0
2412.41	0
2412.71	0
2413.01	0
2413.31	0
2413.61	0
2413.91	0
2414.21	0
2414.51	0
2414.81	0
2415.12	0
2415.42	0
2415.72	0
2416.02	0
2416.32	0
2416.62	0
2416.92	0
2417.22	0
2417.52	0
2417.82	0
2418.12	0
2418.42	0
2418.72	0
2419.02	0
2419.32	0
2419.62	0
2419.92	0
2420.22	0
2420.52	0
2420.82	0
2421.12	0
2421.42	0
2421.71	0
2422.01	0
2422.31	0
2422.61	0
2422.91	0
2423.21	0
2423.51	0
2423.81	0
2424.11	0
2424.41	0
2424.71	0
2425.01	0
2425.31	0
2425.61	0
2425.91	0
2426.21	0
2426.51	0
2426.81	0
2427.11	0
2427.41	0
2427.7	0
2428	0
2428.3	0
2428.6	0
2428.9	0
2429.2	0
2429.5	0
2429.8	0
2430.1	0
2430.4	0
2430.7	0
2430.99	0
2431.29	0
2431.59	0
2431.89	0
2432.19	0
2432.49	0
2432.79	0
2433.09	0
2433.39	0
2433.68	0
2433.98	0
2434.28	0
2434.58	0
2434.88	0
2435.18	0
2435.48	0
2435.78	0
2436.07	0
2436.37	0
2436.67	0
2436.97	0
2437.27	0
2437.57	0
2437.86	0
2438.16	0
2438.46	0
2438.76	0
2439.06	0
2439.36	0
2439.66	0
2439.95	0
2440.25	0
2440.55	0
2440.85	0
2441.15	0
2441.44	0
2441.74	0
2442.04	0
2442.34	0
2442.64	0
2442.93	0
2443.23	0
2443.53	0
2443.83	0
2444.13	0
2444.42	0
2444.72	0
2445.02	0
2445.32	0
2445.62	0
2445.91	0
2446.21	0
2446.51	0
2446.81	0
2447.1	0
2447.4	0
2447.7	0
2448	0
2448.3	0
2448.59	0
2448.89	0
2449.19	0
2449.49	0
2449.78	0
2450.08	0
2450.38	0
2450.68	0
2450.97	0
2451.27	0
2451.57	0
2451.87	0
2452.16	0
2452.46	0
2452.76	0
2453.05	0
2453.35	0
2453.65	0
2453.95	0
2454.24	0
2454.54	0
2454.84	0
2455.13	0
2455.43	0
2455.73	0
2456.03	0
2456.32	0
2456.62	0
2456.92	0
2457.21	0
2457.51	0
2457.81	0
2458.1	0
2458.4	0
2458.7	0
2458.99	0
2459.29	0
2459.59	0
2459.88	0
2460.18	0
2460.48	0
2460.77	0
2461.07	0
2461.37	0
2461.66	0
2461.96	0
2462.26	0
2462.55	0
2462.85	0
2463.15	0
2463.44	0
2463.74	0
2464.04	0
2464.33	0
2464.63	0
2464.92	0
2465.22	0
2465.52	0
2465.81	0
2466.11	0
2466.41	0
2466.7	0
2467	0
2467.29	0
2467.59	0
2467.89	0
2468.18	0
2468.48	0
2468.77	0
2469.07	0
2469.37	0
2469.66	0
2469.96	0
2470.25	0
2470.55	0
2470.84	0
2471.14	0
2471.44	0
2471.73	0
2472.03	0
2472.32	0
2472.62	0
2472.91	0
2473.21	0
2473.51	0
2473.8	0
2474.1	0
2474.39	0
2474.69	0
2474.98	0
2475.28	0
2475.57	0
2475.87	0
2476.17	0
2476.46	0
2476.76	0
2477.05	0
2477.35	0
2477.64	0
2477.94	0
2478.23	0
2478.53	0
2478.82	0
2479.12	0
2479.41	0
2479.71	0
2480	0
2480.3	0
2480.59	0
2480.89	0
2481.18	0
2481.48	0
2481.77	0
2482.07	0
2482.36	0
2482.66	0
2482.95	0
2483.25	0
2483.54	0
2483.84	0
2484.13	0
2484.43	0
2484.72	0
2485.02	0
2485.31	0
2485.6	0
2485.9	0
2486.19	0
2486.49	0
2486.78	0
2487.08	0
2487.37	0
2487.67	0
2487.96	0
2488.26	0
2488.55	0
2488.84	0
2489.14	0
2489.43	0
2489.73	0
2490.02	0
2490.32	0
2490.61	0
2490.9	0
2491.2	0
2491.49	0
2491.79	0
2492.08	0
2492.37	0
2492.67	0
2492.96	0
2493.26	0
2493.55	0
2493.84	0
2494.14	0
2494.43	0
2494.73	0
2495.02	0
2495.31	0
2495.61	0
2495.9	0
2496.2	0
2496.49	0
2496.78	0
2497.08	0
2497.37	0
2497.66	0
2497.96	0
2498.25	0
2498.54	0
2498.84	0
2499.13	0
2499.43	0
2499.72	0
2500.01	0
2500.31	0
2500.6	0
2500.89	0
2501.19	0
2501.48	0
2501.77	0
2502.07	0
2502.36	0
2502.65	0
2502.95	0
2503.24	0
2503.53	0
2503.82	0
2504.12	0
2504.41	0
2504.7	0
2505	0
2505.29	0
2505.58	0
2505.88	0
2506.17	0
2506.46	0
2506.76	0
2507.05	0
2507.34	0
2507.63	0
2507.93	0
2508.22	0
2508.51	0
2508.8	0
2509.1	0
2509.39	0
2509.68	0
2509.98	0
2510.27	0
2510.56	0
2510.85	0
2511.15	0
2511.44	0
2511.73	0
2512.02	0
2512.32	0
2512.61	0
2512.9	0
2513.19	0
2513.49	0
2513.78	0
2514.07	0
2514.36	0
2514.65	0
2514.95	0
2515.24	0
2515.53	0
2515.82	0
2516.12	0
2516.41	0
2516.7	0
2516.99	0
2517.28	0
2517.58	0
2517.87	0
2518.16	0
2518.45	0
2518.74	0
2519.04	0
2519.33	0
2519.62	0
2519.91	0
2520.2	0
2520.5	0
2520.79	0
2521.08	0
2521.37	0
2521.66	0
2521.95	0
2522.25	0
2522.54	0
2522.83	0
2523.12	0
2523.41	0
2523.7	0
2523.99	0
2524.29	0
2524.58	0
2524.87	0
2525.16	0
2525.45	0
2525.74	0
2526.03	0
2526.33	0
2526.62	0
2526.91	0
2527.2	0
2527.49	0
2527.78	0
2528.07	0
2528.36	0
2528.66	0
2528.95	0
2529.24	0
2529.53	0
2529.82	0
2530.11	0
2530.4	0
2530.69	0
2530.98	0
2531.27	0
2531.57	0
2531.86	0
2532.15	0
2532.44	0
2532.73	0
2533.02	0
2533.31	0
2533.6	0
2533.89	0
2534.18	0
2534.47	0
2534.76	0
2535.05	0
2535.35	0
2535.64	0
2535.93	0
2536.22	0
2536.51	0
2536.8	0
2537.09	0
2537.38	0
2537.67	0
2537.96	0
2538.25	0
2538.54	0
2538.83	0
2539.12	0
2539.41	0
2539.7	0
2539.99	0
2540.28	0
2540.57	0
2540.86	0
2541.15	0
2541.44	0
2541.73	0
2542.02	0
2542.31	0
2542.6	0
2542.89	0
2543.18	0
2543.47	0
2543.76	0
2544.05	0
2544.34	0
2544.63	0
2544.92	0
2545.21	0
2545.5	0
2545.79	0
2546.08	0
2546.37	0
2546.66	0
2546.95	0
2547.24	0
2547.53	0
2547.82	0
2548.11	0
2548.4	0
2548.69	0
2548.98	0
2549.27	0
2549.55	0
2549.84	0
2550.13	0
2550.42	0
2550.71	0
2551	0
2551.29	0
2551.58	0
2551.87	0
2552.16	0
2552.45	0
2552.74	0
2553.03	0
2553.31	0
2553.6	0
2553.89	0
2554.18	0
2554.47	0
2554.76	0
2555.05	0
2555.34	0
2555.63	0
2555.92	0
2556.2	0
2556.49	0
2556.78	0
2557.07	0
2557.36	0
2557.65	0
2557.94	0
2558.23	0
2558.51	0
2558.8	0
2559.09	0
2559.38	0
2559.67	0
2559.96	0
2560.25	0
2560.53	0
2560.82	0
2561.11	0
2561.4	0
2561.69	0
2561.98	0
2562.27	0
2562.55	0
2562.84	0
2563.13	0
2563.42	0
2563.71	0
2564	0
2564.28	0
2564.57	0
2564.86	0
2565.15	0
2565.44	0
2565.72	0
2566.01	0
2566.3	0
2566.59	0
2566.88	0
2567.16	0
2567.45	0
2567.74	0
2568.03	0
2568.32	0
2568.6	0
2568.89	0
2569.18	0
2569.47	0
2569.75	0

