Source: Spectrum Viewer

Chart: Pulse Spectrum

Series: 
Wavelength (nm)	S (a.u.)
1179.9	0
1180.29	0
1180.68	0
1181.06	0
1181.45	0
1181.83	0
1182.22	0
1182.6	0
1182.99	0
1183.38	0
1183.76	0
1184.15	0
1184.53	0
1184.92	0
1185.3	0
1185.69	0
1186.07	0
1186.46	0
1186.85	0
1187.23	0
1187.62	0
1188	0
1188.39	0
1188.77	0
1189.16	0
1189.54	0
1189.93	0
1190.31	0
1190.7	0
1191.08	0
1191.47	0
1191.85	0
1192.24	0
1192.62	0
1193.01	0
1193.39	0
1193.78	0
1194.16	0
1194.55	0
1194.93	0
1195.32	0
1195.7	0
1196.09	0
1196.47	0
1196.86	0
1197.24	0
1197.63	0
1198.01	0
1198.4	0
1198.78	0
1199.16	0
1199.55	0
1199.93	0
1200.32	0
1200.7	0
1201.09	0
1201.47	0
1201.86	0
1202.24	0
1202.63	0
1203.01	0
1203.39	0
1203.78	0
1204.16	0
1204.55	0
1204.93	0
1205.32	0
1205.7	0
1206.08	0
1206.47	0
1206.85	0
1207.24	0
1207.62	0
1208	0
1208.39	0
1208.77	0
1209.16	0
1209.54	0
1209.92	0
1210.31	0
1210.69	0
1211.08	0
1211.46	0
1211.84	0
1212.23	0
1212.61	0
1213	0
1213.38	0
1213.76	0
1214.15	0
1214.53	0
1214.91	0
1215.3	0
1215.68	0
1216.06	0
1216.45	0
1216.83	0
1217.22	0
1217.6	0
1217.98	0
1218.37	0
1218.75	0
1219.13	0
1219.52	0
1219.9	0
1220.28	0
1220.67	0
1221.05	0
1221.43	0
1221.82	0
1222.2	0
1222.58	0
1222.97	0
1223.35	0
1223.73	0
1224.11	0
1224.5	0
1224.88	0
1225.26	0
1225.65	0
1226.03	0
1226.41	0
1226.8	0
1227.18	0
1227.56	0
1227.94	0
1228.33	0
1228.71	0
1229.09	0
1229.47	0
1229.86	0
1230.24	0
1230.62	0
1231.01	0
1231.39	0
1231.77	0
1232.15	0
1232.54	0
1232.92	0
1233.3	0
1233.68	0
1234.07	0
1234.45	0
1234.83	0
1235.21	0
1235.6	0
1235.98	0
1236.36	0
1236.74	0
1237.12	0
1237.51	0
1237.89	0
1238.27	0
1238.65	0
1239.04	0
1239.42	0
1239.8	0
1240.18	0
1240.56	0
1240.95	0
1241.33	0
1241.71	0
1242.09	0
1242.47	0
1242.86	0
1243.24	0
1243.62	0
1244	0
1244.38	0
1244.77	0
1245.15	0
1245.53	0
1245.91	0
1246.29	0
1246.67	0
1247.06	0
1247.44	0
1247.82	0
1248.2	0
1248.58	0
1248.96	0
1249.34	0
1249.73	0
1250.11	0
1250.49	0
1250.87	0
1251.25	0
1251.63	0
1252.01	0
1252.4	0
1252.78	0
1253.16	0
1253.54	0
1253.92	0
1254.3	0
1254.68	0
1255.06	0
1255.45	0
1255.83	0
1256.21	0
1256.59	0
1256.97	0
1257.35	0
1257.73	0
1258.11	0
1258.49	0
1258.87	0
1259.26	0
1259.64	0
1260.02	0
1260.4	0
1260.78	0
1261.16	0
1261.54	0
1261.92	0
1262.3	0
1262.68	0
1263.06	0
1263.44	0
1263.82	0
1264.21	0
1264.59	0
1264.97	0
1265.35	0
1265.73	0
1266.11	0
1266.49	0
1266.87	0
1267.25	0
1267.63	0
1268.01	0
1268.39	0
1268.77	0
1269.15	0
1269.53	0
1269.91	0
1270.29	0
1270.67	0
1271.05	0
1271.43	0
1271.81	0
1272.19	0
1272.57	0
1272.95	0
1273.33	0
1273.71	0
1274.09	0
1274.47	0
1274.85	0
1275.23	0
1275.61	0
1275.99	0
1276.37	0
1276.75	0
1277.13	0
1277.51	0
1277.89	0
1278.27	0
1278.65	0
1279.03	0
1279.41	0
1279.79	0
1280.17	0
1280.55	0
1280.93	0
1281.31	0
1281.69	0
1282.07	0
1282.45	0
1282.82	0
1283.2	0
1283.58	0
1283.96	0
1284.34	0
1284.72	0
1285.1	0
1285.48	0
1285.86	0
1286.24	0
1286.62	0
1287	0
1287.38	0
1287.75	0
1288.13	0
1288.51	0
1288.89	0
1289.27	0
1289.65	0
1290.03	0
1290.41	0
1290.79	0
1291.17	0
1291.54	0
1291.92	0
1292.3	0
1292.68	0
1293.06	0
1293.44	0
1293.82	0
1294.2	0
1294.57	0
1294.95	0
1295.33	0
1295.71	0
1296.09	0
1296.47	0
1296.85	0
1297.22	0
1297.6	0
1297.98	0
1298.36	0
1298.74	0
1299.12	0
1299.5	0
1299.87	0
1300.25	0
1300.63	0
1301.01	0
1301.39	0
1301.77	0
1302.14	0
1302.52	0
1302.9	0
1303.28	0
1303.66	0
1304.03	0
1304.41	0
1304.79	0
1305.17	0
1305.55	0
1305.92	0
1306.3	0
1306.68	0
1307.06	0
1307.44	0
1307.81	0
1308.19	0
1308.57	0
1308.95	0
1309.32	0
1309.7	0
1310.08	0
1310.46	0
1310.84	0
1311.21	0
1311.59	0
1311.97	0
1312.35	0
1312.72	0
1313.1	0
1313.48	0
1313.86	0
1314.23	0
1314.61	0
1314.99	0
1315.37	0
1315.74	0
1316.12	0
1316.5	0
1316.87	0
1317.25	0
1317.63	0
1318.01	0
1318.38	0
1318.76	0
1319.14	0
1319.52	0
1319.89	0
1320.27	0
1320.65	0
1321.02	0
1321.4	0
1321.78	0
1322.15	0
1322.53	0
1322.91	0
1323.29	0
1323.66	0
1324.04	0
1324.42	0
1324.79	0
1325.17	0
1325.55	0
1325.92	0
1326.3	0
1326.68	0
1327.05	0
1327.43	0
1327.81	0
1328.18	0
1328.56	0
1328.94	0
1329.31	0
1329.69	0
1330.06	0
1330.44	0
1330.82	0
1331.19	0
1331.57	0
1331.95	0
1332.32	0
1332.7	0
1333.08	0
1333.45	0
1333.83	0
1334.2	0
1334.58	0
1334.96	0
1335.33	0
1335.71	0
1336.08	0
1336.46	0
1336.84	0
1337.21	0
1337.59	0
1337.96	0
1338.34	0
1338.72	0
1339.09	0
1339.47	0
1339.84	0
1340.22	0
1340.6	0
1340.97	0
1341.35	0
1341.72	0
1342.1	0
1342.47	0
1342.85	0
1343.23	0
1343.6	0
1343.98	0
1344.35	0
1344.73	0
1345.1	0
1345.48	0
1345.85	0
1346.23	0
1346.61	0
1346.98	0
1347.36	0
1347.73	0
1348.11	0
1348.48	0
1348.86	0
1349.23	0
1349.61	0
1349.98	0
1350.36	0
1350.73	0
1351.11	0
1351.48	0
1351.86	0
1352.23	0
1352.61	0
1352.98	0
1353.36	0
1353.73	0
1354.11	0
1354.48	0
1354.86	0
1355.23	0
1355.61	0
1355.98	0
1356.36	0
1356.73	0
1357.11	0
1357.48	0
1357.86	0
1358.23	0
1358.61	0
1358.98	0
1359.35	0
1359.73	0
1360.1	0
1360.48	0
1360.85	0
1361.23	0
1361.6	0
1361.98	0
1362.35	0
1362.72	0
1363.1	0
1363.47	0
1363.85	0
1364.22	0
1364.6	0
1364.97	0
1365.34	0
1365.72	0
1366.09	0
1366.47	0
1366.84	0
1367.22	0
1367.59	0
1367.96	0
1368.34	0
1368.71	0
1369.09	0
1369.46	-0.96
1369.83	-0.6
1370.21	-0.48
1370.58	-0.4
1370.96	0.2
1371.33	1.16
1371.7	0.8
1372.08	0.68
1372.45	0.8
1372.82	0.2
1373.2	0.2
1373.57	0.2
1373.95	0.24
1374.32	0.56
1374.69	0.92
1375.07	1.12
1375.44	1.16
1375.81	1.44
1376.19	1.24
1376.56	1.04
1376.93	0.84
1377.31	0.8
1377.68	0.52
1378.05	0.2
1378.43	0.28
1378.8	0.28
1379.17	0.52
1379.55	0.56
1379.92	0.92
1380.29	0.84
1380.67	0.96
1381.04	1.04
1381.41	0.96
1381.79	0.6
1382.16	0.44
1382.53	0.32
1382.91	-0.44
1383.28	-0.32
1383.65	-0.28
1384.03	-0.2
1384.4	-0.08
1384.77	0.4
1385.14	0.28
1385.52	0.32
1385.89	0.76
1386.26	0.72
1386.64	0.92
1387.01	1.04
1387.38	0.96
1387.75	0.6
1388.13	0.56
1388.5	0.32
1388.87	0.24
1389.25	0.52
1389.62	0.28
1389.99	0.04
1390.36	0.24
1390.74	0.32
1391.11	0.36
1391.48	0.72
1391.85	0.96
1392.23	0.76
1392.6	0.72
1392.97	0.48
1393.34	0.28
1393.72	0.24
1394.09	0.28
1394.46	0.56
1394.83	0.48
1395.21	0.56
1395.58	0.84
1395.95	0.8
1396.32	0.44
1396.69	0.52
1397.07	0.4
1397.44	0.12
1397.81	0.12
1398.18	0.24
1398.55	0.16
1398.93	0.12
1399.3	0.48
1399.67	0.76
1400.04	0.76
1400.41	0.76
1400.79	0.76
1401.16	0.6
1401.53	0.56
1401.9	0.48
1402.27	0.48
1402.65	0.48
1403.02	0.28
1403.39	0.12
1403.76	-0.32
1404.13	2.88669e-17
1404.51	0.2
1404.88	0.36
1405.25	0.28
1405.62	0.96
1405.99	0.64
1406.36	0.64
1406.74	0.48
1407.11	0.56
1407.48	0.4
1407.85	-0.8
1408.22	-0.96
1408.59	-0.96
1408.96	-1
1409.34	-0.84
1409.71	0.4
1410.08	0.52
1410.45	0.56
1410.82	0.52
1411.19	0.32
1411.56	0.28
1411.93	0.36
1412.31	0.72
1412.68	0.72
1413.05	1.36
1413.42	1.36
1413.79	1.2
1414.16	1.16
1414.53	1.44
1414.9	0.52
1415.27	0.52
1415.65	0.72
1416.02	0.84
1416.39	0.68
1416.76	0.88
1417.13	0.88
1417.5	0.68
1417.87	0.2
1418.24	0.12
1418.61	0.28
1418.98	0.44
1419.35	0.56
1419.73	0.92
1420.1	1.04
1420.47	1.2
1420.84	1.2
1421.21	1
1421.58	0.96
1421.95	0.8
1422.32	0.56
1422.69	0.52
1423.06	0.8
1423.43	0.72
1423.8	1.04
1424.17	1.12
1424.54	1
1424.91	1.2
1425.28	1.16
1425.65	0.84
1426.02	0.72
1426.39	0.84
1426.76	-0.24
1427.14	-0.24
1427.51	-0.24
1427.88	-0.28
1428.25	-0.4
1428.62	0.24
1428.99	0.04
1429.36	0.08
1429.73	0.08
1430.1	0.32
1430.47	0.36
1430.84	0.4
1431.21	0.36
1431.58	0.6
1431.95	0.36
1432.32	0.2
1432.69	0.28
1433.06	0.4
1433.43	0.48
1433.8	0.68
1434.17	1.04
1434.54	1.24
1434.91	1.52
1435.28	1.24
1435.64	1.12
1436.01	0.52
1436.38	0.4
1436.75	0.2
1437.12	0.16
1437.49	0.08
1437.86	0.64
1438.23	0.44
1438.6	0.24
1438.97	0.48
1439.34	0.6
1439.71	0.56
1440.08	0.8
1440.45	1
1440.82	0.32
1441.19	0.32
1441.56	0.32
1441.93	0.28
1442.3	0.24
1442.67	-0.72
1443.03	-0.8
1443.4	-0.88
1443.77	-1.04
1444.14	-0.96
1444.51	0.44
1444.88	0.6
1445.25	0.84
1445.62	0.96
1445.99	0.72
1446.36	1
1446.73	0.8
1447.09	0.52
1447.46	0.68
1447.83	0.8
1448.2	0.52
1448.57	0.36
1448.94	0.36
1449.31	0.4
1449.68	0.56
1450.05	0.6
1450.41	1
1450.78	0.52
1451.15	0.4
1451.52	0.48
1451.89	0.56
1452.26	0.4
1452.63	0.92
1453	0.68
1453.36	0.32
1453.73	0.24
1454.1	0.16
1454.47	0.16
1454.84	0.16
1455.21	0.16
1455.57	0.64
1455.94	0.92
1456.31	0.84
1456.68	0.84
1457.05	1.08
1457.42	0.88
1457.78	0.76
1458.15	0.92
1458.52	0.92
1458.89	0.68
1459.26	0.44
1459.63	0.48
1459.99	0.36
1460.36	0.52
1460.73	0.52
1461.1	0.56
1461.47	0.68
1461.83	0.6
1462.2	0.52
1462.57	0.88
1462.94	0.88
1463.31	0.6
1463.67	0.6
1464.04	0.48
1464.41	0.36
1464.78	0.04
1465.15	0.08
1465.51	0.36
1465.88	0.48
1466.25	0.24
1466.62	0.56
1466.98	0.48
1467.35	0.52
1467.72	0.6
1468.09	0.8
1468.46	0.84
1468.82	0.84
1469.19	0.92
1469.56	1.12
1469.93	0.96
1470.29	0.8
1470.66	0.8
1471.03	0.4
1471.4	0.12
1471.76	0.08
1472.13	0.2
1472.5	0.2
1472.86	0.32
1473.23	0.4
1473.6	0.4
1473.97	0.28
1474.33	0.36
1474.7	0.28
1475.07	0.24
1475.44	0.56
1475.8	0.36
1476.17	0.28
1476.54	0.24
1476.9	0.16
1477.27	-0.12
1477.64	0.08
1478	0.4
1478.37	0.68
1478.74	0.64
1479.11	0.88
1479.47	1.28
1479.84	0.96
1480.21	1.32
1480.57	1.44
1480.94	1.56
1481.31	1.28
1481.67	1.28
1482.04	0.76
1482.41	0.92
1482.77	0.52
1483.14	0.4
1483.51	0.4
1483.87	0.36
1484.24	0.12
1484.61	0.12
1484.97	0.2
1485.34	0.4
1485.71	-0.68
1486.07	-0.56
1486.44	-0.56
1486.81	-0.36
1487.17	-0.48
1487.54	0.6
1487.9	0.44
1488.27	0.48
1488.64	0.08
1489	0.04
1489.37	0.08
1489.74	0.28
1490.1	1.32
1490.47	1.68
1490.83	1.64
1491.2	1.56
1491.57	1.36
1491.93	0.56
1492.3	0.32
1492.66	0.84
1493.03	1
1493.4	1
1493.76	0.8
1494.13	0.8
1494.49	0.28
1494.86	0.16
1495.23	0.2
1495.59	0.12
1495.96	-1.28
1496.32	-1.2
1496.69	-1.24
1497.06	-1.2
1497.42	-2
1497.79	-0.6
1498.15	-0.32
1498.52	-0.36
1498.88	-0.4
1499.25	0.48
1499.62	0.44
1499.98	0.36
1500.35	0.56
1500.71	0.52
1501.08	0.44
1501.44	0.48
1501.81	0.24
1502.17	0.4
1502.54	0.56
1502.9	0.64
1503.27	0.64
1503.64	1.2
1504	0.92
1504.37	0.96
1504.73	1.16
1505.1	1.32
1505.46	0.72
1505.83	0.8
1506.19	0.6
1506.56	0.44
1506.92	0.28
1507.29	0.4
1507.65	0.32
1508.02	0.32
1508.38	0.32
1508.75	0.4
1509.11	0.36
1509.48	0.56
1509.84	0.56
1510.21	0.48
1510.57	0.44
1510.94	0.52
1511.3	0.24
1511.67	0.52
1512.03	0.52
1512.4	0.68
1512.76	0.72
1513.13	-0.2
1513.49	-0.68
1513.85	-0.52
1514.22	-0.68
1514.58	-0.88
1514.95	0.12
1515.31	0.52
1515.68	0.64
1516.04	0.6
1516.41	0.64
1516.77	0.76
1517.14	1.24
1517.5	1.04
1517.86	1.64
1518.23	1.6
1518.59	1.4
1518.96	0.8
1519.32	0.76
1519.69	0.16
1520.05	0.16
1520.41	0.16
1520.78	0.08
1521.14	0
1521.51	0
1521.87	0
1522.24	0
1522.6	0
1522.96	0.12
1523.33	0.36
1523.69	0.4
1524.06	1.04
1524.42	1.16
1524.78	1.08
1525.15	0.96
1525.51	0.96
1525.88	0.32
1526.24	0.2
1526.6	0.2
1526.97	0.08
1527.33	0.28
1527.69	0.28
1528.06	0.8
1528.42	0.8
1528.79	0.84
1529.15	5.55112e-17
1529.51	0.44
1529.88	-0.08
1530.24	-0.12
1530.6	-0.12
1530.97	0.56
1531.33	0.2
1531.69	0.32
1532.06	0.8
1532.42	0.76
1532.78	0.68
1533.15	0.6
1533.51	0.48
1533.87	0
1534.24	0.12
1534.6	0.2
1534.96	0.2
1535.33	0.6
1535.69	0.64
1536.05	0.52
1536.42	0.72
1536.78	0.88
1537.14	0.56
1537.51	0.52
1537.87	0.52
1538.23	0.24
1538.6	0.48
1538.96	0.6
1539.32	0.68
1539.68	0.72
1540.05	0.72
1540.41	0.52
1540.77	0.32
1541.14	0.32
1541.5	0.56
1541.86	0.8
1542.23	0.6
1542.59	0.76
1542.95	0.8
1543.31	0.52
1543.68	0.36
1544.04	0.4
1544.4	0.32
1544.76	0.2
1545.13	0.36
1545.49	0.6
1545.85	0.96
1546.21	1.04
1546.58	1.12
1546.94	1.04
1547.3	0.72
1547.66	0.32
1548.03	0.16
1548.39	0.08
1548.75	0.08
1549.11	0.28
1549.48	0.44
1549.84	0.44
1550.2	0.44
1550.56	0.36
1550.93	0.16
1551.29	0.04
1551.65	0.12
1552.01	0.28
1552.37	0.32
1552.74	0.32
1553.1	0.28
1553.46	0.24
1553.82	0.16
1554.18	0.6
1554.55	0.68
1554.91	0.84
1555.27	0.96
1555.63	0.88
1555.99	0.76
1556.36	0.68
1556.72	-0.96
1557.08	-1.04
1557.44	-0.6
1557.8	-0.92
1558.17	-0.92
1558.53	0.68
1558.89	0.6
1559.25	0.24
1559.61	0.48
1559.97	0.48
1560.34	0.36
1560.7	0.52
1561.06	0.44
1561.42	0.48
1561.78	0.6
1562.14	0.4
1562.5	0.24
1562.87	0.24
1563.23	-0.08
1563.59	-0.52
1563.95	-0.04
1564.31	-0.04
1564.67	0.12
1565.03	0.12
1565.4	0.56
1565.76	0.56
1566.12	0.56
1566.48	0.4
1566.84	0.4
1567.2	0.52
1567.56	0.2
1567.92	0.36
1568.29	0.64
1568.65	0.88
1569.01	0.64
1569.37	0.28
1569.73	0.12
1570.09	0.04
1570.45	-0.12
1570.81	6.66107e-18
1571.17	0.56
1571.53	0.68
1571.89	0.76
1572.26	0.8
1572.62	0.84
1572.98	0.76
1573.34	0.88
1573.7	0.92
1574.06	0.8
1574.42	0.88
1574.78	0.76
1575.14	0.72
1575.5	0.4
1575.86	-0.4
1576.22	-0.64
1576.58	-0.6
1576.94	-0.8
1577.3	-0.8
1577.67	0
1578.03	0
1578.39	0
1578.75	0
1579.11	0.2
1579.47	0.2
1579.83	0.2
1580.19	0.32
1580.55	0.76
1580.91	0.56
1581.27	0.64
1581.63	0.64
1581.99	0.52
1582.35	0.08
1582.71	0.4
1583.07	0.32
1583.43	0.32
1583.79	0.68
1584.15	0.68
1584.51	0.52
1584.87	0.64
1585.23	0.64
1585.59	0.68
1585.95	1.04
1586.31	1
1586.67	0.88
1587.03	0.88
1587.39	0.6
1587.75	0.24
1588.11	0.52
1588.47	0.52
1588.83	0.52
1589.19	0.4
1589.55	0.44
1589.91	0.24
1590.27	0.36
1590.63	0.48
1590.99	0.64
1591.35	0.76
1591.71	0.6
1592.07	0.68
1592.42	0.88
1592.78	0.88
1593.14	0.72
1593.5	0.84
1593.86	0.8
1594.22	0.68
1594.58	0.52
1594.94	0.6
1595.3	0.44
1595.66	0.68
1596.02	0.56
1596.38	0.6
1596.74	0.52
1597.1	0.52
1597.46	0.48
1597.81	0.4
1598.17	0.68
1598.53	0.84
1598.89	0.84
1599.25	0.48
1599.61	0.6
1599.97	0.44
1600.33	0.28
1600.69	0.56
1601.05	0.68
1601.4	0.68
1601.76	0.12
1602.12	0.16
1602.48	0.04
1602.84	0.16
1603.2	0.24
1603.56	0.92
1603.92	1
1604.28	0.84
1604.63	0.96
1604.99	1.24
1605.35	1.24
1605.71	1.16
1606.07	1.16
1606.43	0.8
1606.79	0.88
1607.14	0.6
1607.5	0.8
1607.86	0.88
1608.22	1.16
1608.58	0.64
1608.94	0.64
1609.29	0.44
1609.65	0.24
1610.01	0.2
1610.37	0.44
1610.73	0.52
1611.09	0.72
1611.44	0.84
1611.8	0.92
1612.16	0.84
1612.52	0.76
1612.88	0.76
1613.24	0.76
1613.59	0.52
1613.95	0.36
1614.31	0.56
1614.67	0.44
1615.03	0.8
1615.38	1.16
1615.74	1.72
1616.1	2.08
1616.46	2.24
1616.82	1.88
1617.17	1.52
1617.53	0.96
1617.89	0.56
1618.25	0.72
1618.6	1.12
1618.96	1.16
1619.32	1.52
1619.68	1.36
1620.04	1.32
1620.39	0.72
1620.75	0.6
1621.11	0.32
1621.47	0.64
1621.82	0.28
1622.18	0.48
1622.54	0.48
1622.9	0.36
1623.25	-0.68
1623.61	-0.36
1623.97	-0.12
1624.33	0.2
1624.68	0.32
1625.04	1.56
1625.4	1.28
1625.75	1.2
1626.11	1.52
1626.47	1.48
1626.83	0.96
1627.18	1.08
1627.54	1
1627.9	0.84
1628.26	0.92
1628.61	0.96
1628.97	0.88
1629.33	1
1629.68	0.52
1630.04	0.44
1630.4	-0.12
1630.75	-0.2
1631.11	-0.16
1631.47	-0.32
1631.83	-0.24
1632.18	0.28
1632.54	0.64
1632.9	0.52
1633.25	0.88
1633.61	0.92
1633.97	0.92
1634.32	0.56
1634.68	0.6
1635.04	0.4
1635.39	0.4
1635.75	0.6
1636.11	0.56
1636.46	0.4
1636.82	0.44
1637.18	0.4
1637.53	0.36
1637.89	0.68
1638.25	0.68
1638.6	0.88
1638.96	0.96
1639.31	1
1639.67	0.8
1640.03	1
1640.38	0.92
1640.74	0.8
1641.1	0.64
1641.45	0.68
1641.81	0.64
1642.16	0.52
1642.52	0.64
1642.88	1.2
1643.23	0.44
1643.59	0.36
1643.95	0.32
1644.3	0.52
1644.66	-0.08
1645.01	0.6
1645.37	0.52
1645.73	0.68
1646.08	0.56
1646.44	0.8
1646.79	0.52
1647.15	0.64
1647.51	0.48
1647.86	0.36
1648.22	0.36
1648.57	-0.16
1648.93	-0.16
1649.28	-0.16
1649.64	-0.28
1650	-0.28
1650.35	0.48
1650.71	0.48
1651.06	0.76
1651.42	0.84
1651.77	0.52
1652.13	0.48
1652.48	0.64
1652.84	0.6
1653.2	0.56
1653.55	1.12
1653.91	1.24
1654.26	1.12
1654.62	0.96
1654.97	0.84
1655.33	0.48
1655.68	0.52
1656.04	0.6
1656.39	0.56
1656.75	0.88
1657.1	1.32
1657.46	1.16
1657.81	0.92
1658.17	0.92
1658.52	0.6
1658.88	0.36
1659.23	0.44
1659.59	0.6
1659.94	0.56
1660.3	0.8
1660.65	0.92
1661.01	0.92
1661.36	1.04
1661.72	1.48
1662.07	1.32
1662.43	1.08
1662.78	1.04
1663.14	0.76
1663.49	0.32
1663.85	0.32
1664.2	0.68
1664.56	0.88
1664.91	-0.64
1665.27	-0.56
1665.62	-0.64
1665.98	-1.08
1666.33	-0.92
1666.69	0.6
1667.04	0.76
1667.39	0.8
1667.75	1.2
1668.1	0.8
1668.46	1
1668.81	0.8
1669.17	0.96
1669.52	0.56
1669.88	0.84
1670.23	0.64
1670.58	0.84
1670.94	0.88
1671.29	0.88
1671.65	0.68
1672	1.24
1672.36	1
1672.71	0.76
1673.06	0.72
1673.42	0.6
1673.77	0.08
1674.13	0.4
1674.48	0.48
1674.83	0.4
1675.19	0.84
1675.54	1.12
1675.9	1
1676.25	1.16
1676.6	1.6
1676.96	1.24
1677.31	1.44
1677.67	1.64
1678.02	1.4
1678.37	1
1678.73	1
1679.08	0.72
1679.43	0.4
1679.79	0.72
1680.14	0.76
1680.5	0.4
1680.85	0.24
1681.2	0.4
1681.56	0.32
1681.91	0.52
1682.26	0.84
1682.62	0.8
1682.97	0.72
1683.32	0.92
1683.68	0.96
1684.03	0.96
1684.38	0.92
1684.74	0.92
1685.09	0.52
1685.44	0.12
1685.8	0.6
1686.15	0.6
1686.5	0.64
1686.86	0.64
1687.21	0.6
1687.56	0.52
1687.92	0.56
1688.27	0.76
1688.62	0.8
1688.98	1.12
1689.33	0.72
1689.68	0.68
1690.03	0.44
1690.39	0.4
1690.74	0.2
1691.09	0.2
1691.45	0.2
1691.8	0.04
1692.15	0.12
1692.5	0.12
1692.86	0.12
1693.21	0.2
1693.56	0.2
1693.92	0.08
1694.27	-0.52
1694.62	-0.28
1694.97	-0.2
1695.33	-0.12
1695.68	0.32
1696.03	1.32
1696.38	1.08
1696.74	1.56
1697.09	1.4
1697.44	1
1697.79	0.6
1698.15	0.6
1698.5	-0.04
1698.85	0.4
1699.2	0.12
1699.56	0.36
1699.91	0.56
1700.26	0.56
1700.61	0.32
1700.97	0.72
1701.32	0.96
1701.67	1.08
1702.02	1.08
1702.37	1.2
1702.73	1.16
1703.08	0.8
1703.43	0.52
1703.78	0.64
1704.13	0.68
1704.49	0.8
1704.84	0.8
1705.19	0.76
1705.54	0.64
1705.89	0.52
1706.25	0.4
1706.6	0.28
1706.95	0.28
1707.3	0.32
1707.65	0.16
1708.01	0.08
1708.36	0.28
1708.71	0.36
1709.06	0.4
1709.41	0.76
1709.76	1
1710.12	0.8
1710.47	0.8
1710.82	0.96
1711.17	0.92
1711.52	0.76
1711.87	0.76
1712.23	0.68
1712.58	0.64
1712.93	0.52
1713.28	0.52
1713.63	0.52
1713.98	0.52
1714.33	0.32
1714.69	0.12
1715.04	0
1715.39	0.28
1715.74	0.28
1716.09	0.44
1716.44	0.56
1716.79	0.68
1717.14	0.4
1717.5	0.4
1717.85	0.36
1718.2	0.32
1718.55	0.44
1718.9	0.8
1719.25	0.84
1719.6	0.84
1719.95	0.76
1720.3	0.6
1720.65	0.4
1721.01	0.48
1721.36	0.4
1721.71	0.76
1722.06	0.28
1722.41	-0.08
1722.76	-0.2
1723.11	0.08
1723.46	-0.04
1723.81	0.52
1724.16	1.04
1724.51	1.2
1724.86	1.08
1725.21	1.2
1725.56	1.24
1725.92	1.4
1726.27	1.32
1726.62	1.56
1726.97	1.28
1727.32	0.68
1727.67	0.32
1728.02	0.8
1728.37	0.76
1728.72	0.68
1729.07	1.36
1729.42	1.32
1729.77	1.28
1730.12	1.12
1730.47	1.2
1730.82	0.96
1731.17	0.88
1731.52	0.4
1731.87	0.16
1732.22	0.08
1732.57	0.4
1732.92	0.6
1733.27	0.8
1733.62	1.36
1733.97	1.56
1734.32	1.76
1734.67	2.32
1735.02	2
1735.37	1.6
1735.72	1.64
1736.07	1.12
1736.42	0.36
1736.77	0.44
1737.12	0.88
1737.47	0.92
1737.82	0.88
1738.17	1.08
1738.52	1.16
1738.87	0.6
1739.22	0.6
1739.57	0.76
1739.92	0.56
1740.27	0.92
1740.62	0.96
1740.97	0.8
1741.32	0.68
1741.67	0.68
1742.02	0.24
1742.37	0.72
1742.72	0.72
1743.06	0.84
1743.41	0.84
1743.76	1.04
1744.11	-0.56
1744.46	-0.36
1744.81	-0.36
1745.16	-0.28
1745.51	-0.16
1745.86	0.88
1746.21	0.64
1746.56	0.52
1746.91	0.72
1747.26	0.4
1747.6	0.44
1747.95	0.36
1748.3	0.76
1748.65	0.48
1749	0.64
1749.35	0.84
1749.7	0.84
1750.05	0.48
1750.4	1
1750.75	0.88
1751.09	0.8
1751.44	0.96
1751.79	0.44
1752.14	-0.04
1752.49	2.10945e-17
1752.84	-0.16
1753.19	-0.28
1753.54	0.16
1753.88	0.12
1754.23	0.08
1754.58	0.36
1754.93	0.48
1755.28	0.68
1755.63	1
1755.98	0.96
1756.32	0.84
1756.67	0.88
1757.02	0.68
1757.37	0.36
1757.72	0.72
1758.07	0.76
1758.42	0.88
1758.76	0.92
1759.11	0.52
1759.46	0.16
1759.81	-0.04
1760.16	-0.32
1760.5	-0.04
1760.85	0.28
1761.2	0.36
1761.55	0.52
1761.9	0.64
1762.25	0.36
1762.59	0.44
1762.94	0.4
1763.29	0.24
1763.64	0.16
1763.99	0.24
1764.33	0.24
1764.68	0.28
1765.03	0.76
1765.38	0.76
1765.73	0.96
1766.07	1.12
1766.42	1.16
1766.77	1.04
1767.12	0.96
1767.46	0.68
1767.81	0.52
1768.16	0.92
1768.51	0.92
1768.85	1.48
1769.2	2.2
1769.55	2.24
1769.9	1.96
1770.25	1.8
1770.59	1.44
1770.94	1.08
1771.29	1.52
1771.64	1.28
1771.98	1.16
1772.33	1.12
1772.68	0.96
1773.02	1.16
1773.37	1.28
1773.72	1.44
1774.07	1.68
1774.41	1.92
1774.76	1.72
1775.11	2.04
1775.46	1.96
1775.8	1.84
1776.15	1.64
1776.5	1.32
1776.84	1.16
1777.19	1.32
1777.54	2.32
1777.89	2.64
1778.23	3.04
1778.58	3.04
1778.93	3.28
1779.27	2.52
1779.62	2.84
1779.97	2.32
1780.31	3
1780.66	3.12
1781.01	3.6
1781.35	3.48
1781.7	3.88
1782.05	3.36
1782.39	2.8
1782.74	3.16
1783.09	2.8
1783.43	3.32
1783.78	3.32
1784.13	3.72
1784.47	2.12
1784.82	2.24
1785.17	2.64
1785.51	2.92
1785.86	3.04
1786.21	4.12
1786.55	4.64
1786.9	4.16
1787.25	5.84
1787.59	6.2
1787.94	5.92
1788.29	5.64
1788.63	5.96
1788.98	4.04
1789.32	4.48
1789.67	4.68
1790.02	5.16
1790.36	5.12
1790.71	6.68
1791.06	5.8
1791.4	5.68
1791.75	5.36
1792.09	6.04
1792.44	4.24
1792.79	2.4
1793.13	2.36
1793.48	2.36
1793.82	1.68
1794.17	-0.24
1794.52	1.56
1794.86	1.88
1795.21	1.6
1795.55	0.88
1795.9	2.44
1796.24	2.48
1796.59	2.68
1796.94	3.8
1797.28	5
1797.63	6.4
1797.97	6.68
1798.32	6.72
1798.66	5
1799.01	4.4
1799.36	3.6
1799.7	3.36
1800.05	3.2
1800.39	3.24
1800.74	2.68
1801.08	2.64
1801.43	2.72
1801.77	2.16
1802.12	2.32
1802.46	2.8
1802.81	3.12
1803.15	2.52
1803.5	2.84
1803.85	3.24
1804.19	2.8
1804.54	2.56
1804.88	3.28
1805.23	3.2
1805.57	3.04
1805.92	3.2
1806.26	4.12
1806.61	4.28
1806.95	4.32
1807.3	4.88
1807.64	5.12
1807.99	4.36
1808.33	4.64
1808.68	4.4
1809.02	3.68
1809.37	4.04
1809.71	4.2
1810.06	4.24
1810.4	5.32
1810.75	5.08
1811.09	4.16
1811.43	4.64
1811.78	5.32
1812.12	4.36
1812.47	6.68
1812.81	6.84
1813.16	7
1813.5	6.08
1813.85	6.12
1814.19	5.64
1814.54	6.36
1814.88	5.56
1815.23	5.32
1815.57	5.76
1815.91	3.8
1816.26	2.84
1816.6	3.2
1816.95	3.4
1817.29	2.64
1817.64	3.24
1817.98	2.72
1818.32	2.88
1818.67	2.56
1819.01	3.16
1819.36	3.64
1819.7	4.64
1820.05	4
1820.39	4.44
1820.73	4.28
1821.08	4.56
1821.42	4.96
1821.77	5.44
1822.11	4.56
1822.45	4.6
1822.8	4.28
1823.14	3.6
1823.49	3.12
1823.83	3.96
1824.17	4.32
1824.52	4
1824.86	5.04
1825.2	5.12
1825.55	4.8
1825.89	4.52
1826.24	4.36
1826.58	3.68
1826.92	3.56
1827.27	3.44
1827.61	2.68
1827.95	2.84
1828.3	3
1828.64	2.84
1828.98	3.12
1829.33	3.28
1829.67	3.16
1830.02	3.28
1830.36	4.36
1830.7	3.72
1831.05	4.84
1831.39	5.48
1831.73	5.64
1832.08	5.4
1832.42	5.88
1832.76	5.16
1833.1	4.24
1833.45	3.48
1833.79	2.6
1834.13	1.88
1834.48	2.56
1834.82	2.72
1835.16	3.24
1835.51	3.2
1835.85	3.48
1836.19	2.8
1836.54	2.84
1836.88	2.04
1837.22	1.76
1837.56	1.64
1837.91	0.28
1838.25	0.72
1838.59	0.72
1838.94	1.2
1839.28	1.28
1839.62	2.04
1839.96	1.56
1840.31	1.88
1840.65	2
1840.99	2.24
1841.34	2.36
1841.68	2.56
1842.02	2.64
1842.36	2.4
1842.71	1.96
1843.05	2
1843.39	2.2
1843.73	2.64
1844.08	3.12
1844.42	3.76
1844.76	4.36
1845.1	3.96
1845.45	3.12
1845.79	2.76
1846.13	2.92
1846.47	2.36
1846.81	1.92
1847.16	2.24
1847.5	2.04
1847.84	2
1848.18	2
1848.53	3.12
1848.87	2.76
1849.21	3
1849.55	2
1849.89	2.2
1850.24	1.28
1850.58	1.08
1850.92	0.6
1851.26	1.44
1851.6	1.04
1851.95	1.36
1852.29	1.52
1852.63	1.68
1852.97	1.6
1853.31	1.92
1853.66	1.36
1854	1.32
1854.34	1.28
1854.68	1.12
1855.02	1.52
1855.36	1.72
1855.71	1.6
1856.05	1.44
1856.39	1.12
1856.73	0.4
1857.07	0.24
1857.41	0.32
1857.76	0.32
1858.1	0.24
1858.44	0.44
1858.78	0.56
1859.12	0.52
1859.46	0.72
1859.8	0.68
1860.15	0.6
1860.49	0.76
1860.83	1.56
1861.17	1.36
1861.51	1.44
1861.85	1.36
1862.19	1.04
1862.53	0.4
1862.88	0.4
1863.22	0.32
1863.56	0.96
1863.9	1.2
1864.24	1
1864.58	1.64
1864.92	1.68
1865.26	0.96
1865.6	1.4
1865.94	1.68
1866.29	1.04
1866.63	1.08
1866.97	1.28
1867.31	0.76
1867.65	0.52
1867.99	0.88
1868.33	0.84
1868.67	0.88
1869.01	0.92
1869.35	0.08
1869.69	-0.12
1870.03	-0.08
1870.37	-0.32
1870.72	-0.28
1871.06	1.32
1871.4	1.2
1871.74	1.24
1872.08	1.36
1872.42	1.48
1872.76	1.16
1873.1	1.12
1873.44	1
1873.78	0.92
1874.12	0.68
1874.46	0.68
1874.8	1.28
1875.14	1.6
1875.48	2.36
1875.82	2.36
1876.16	2.08
1876.5	1.6
1876.84	1.32
1877.18	0.84
1877.52	0.8
1877.86	1.04
1878.2	1.08
1878.54	0.52
1878.88	0.6
1879.22	0.56
1879.56	0.8
1879.9	0.04
1880.24	0.72
1880.58	0.32
1880.92	0.8
1881.26	0.12
1881.6	0.84
1881.94	0.68
1882.28	1.24
1882.62	1.28
1882.96	1.44
1883.3	1.6
1883.64	1.6
1883.98	1.44
1884.32	1
1884.66	0.96
1885	0.84
1885.34	1.28
1885.68	1.4
1886.02	1.44
1886.36	1.52
1886.7	1.8
1887.04	1.76
1887.38	1.52
1887.72	2.24
1888.06	2.52
1888.39	2.96
1888.73	2.72
1889.07	3.2
1889.41	3.44
1889.75	2.84
1890.09	2.68
1890.43	2.72
1890.77	2.12
1891.11	1.28
1891.45	1.76
1891.79	1.68
1892.13	2.64
1892.47	3.2
1892.8	4.16
1893.14	5.2
1893.48	4.48
1893.82	5.64
1894.16	5.76
1894.5	4.92
1894.84	4.64
1895.18	5.72
1895.52	4.44
1895.86	4.04
1896.19	5
1896.53	5
1896.87	5.44
1897.21	6.16
1897.55	7.28
1897.89	6.6
1898.23	7.04
1898.57	7.16
1898.9	7.12
1899.24	7.08
1899.58	8.2
1899.92	8.08
1900.26	8.36
1900.6	8.2
1900.94	7.04
1901.27	6.76
1901.61	5.92
1901.95	6.92
1902.29	7.48
1902.63	9.4
1902.97	9.48
1903.3	10.8
1903.64	9.04
1903.98	9.48
1904.32	9.6
1904.66	9.4
1905	9.64
1905.33	11.08
1905.67	10.64
1906.01	9.72
1906.35	9.72
1906.69	9.2
1907.02	9.48
1907.36	8.52
1907.7	8.84
1908.04	9.6
1908.38	9.44
1908.71	8.96
1909.05	10.56
1909.39	11.04
1909.73	11.64
1910.07	11.6
1910.4	13.04
1910.74	12.84
1911.08	14.2
1911.42	13.96
1911.76	15.52
1912.09	13.04
1912.43	12.84
1912.77	11.96
1913.11	11.76
1913.44	11.76
1913.78	12.96
1914.12	13.56
1914.46	13.36
1914.79	14.16
1915.13	14.68
1915.47	15.12
1915.81	14.96
1916.14	15.88
1916.48	16.8
1916.82	16.56
1917.16	15.32
1917.49	15.84
1917.83	15.64
1918.17	13.72
1918.5	12.84
1918.84	14.16
1919.18	13.92
1919.52	13.32
1919.85	13.92
1920.19	13.6
1920.53	13.64
1920.87	13.84
1921.2	15.04
1921.54	14.76
1921.88	15.2
1922.21	14.8
1922.55	15
1922.89	15.08
1923.22	16
1923.56	16.4
1923.9	17.24
1924.23	18
1924.57	16.4
1924.91	16.68
1925.25	18.24
1925.58	17.32
1925.92	15.52
1926.26	16.88
1926.59	16.4
1926.93	15.12
1927.27	16.32
1927.6	16.56
1927.94	15.64
1928.28	14.76
1928.61	14.28
1928.95	13.48
1929.29	13.68
1929.62	13.4
1929.96	14.16
1930.29	14.4
1930.63	14.08
1930.97	13.44
1931.3	14.24
1931.64	13.8
1931.98	14.84
1932.31	14.92
1932.65	15.12
1932.99	14.16
1933.32	13.56
1933.66	11.64
1933.99	12.12
1934.33	13.12
1934.67	13.16
1935	13.28
1935.34	13.4
1935.67	12.52
1936.01	11.72
1936.35	11.96
1936.68	13
1937.02	13.44
1937.35	13.48
1937.69	11.92
1938.03	10.92
1938.36	9.96
1938.7	9.64
1939.03	8.76
1939.37	9.2
1939.7	10.36
1940.04	9.84
1940.38	9.92
1940.71	9.32
1941.05	10.4
1941.38	9.12
1941.72	7.8
1942.05	6.84
1942.39	6.76
1942.73	5.6
1943.06	5.12
1943.4	6.6
1943.73	6.48
1944.07	6.4
1944.4	6.32
1944.74	5.4
1945.07	4.04
1945.41	4.56
1945.74	4.92
1946.08	5.6
1946.42	5.88
1946.75	6.04
1947.09	4.48
1947.42	4.56
1947.76	4
1948.09	4.2
1948.43	4
1948.76	5.24
1949.1	4.72
1949.43	4.8
1949.77	4.96
1950.1	5.44
1950.44	4.64
1950.77	5.88
1951.11	4.84
1951.44	5.16
1951.78	4.96
1952.11	4.52
1952.45	3.04
1952.78	2.56
1953.12	1.56
1953.45	1.24
1953.79	1.2
1954.12	1.12
1954.46	1.24
1954.79	1.6
1955.12	1.52
1955.46	1.28
1955.79	1.68
1956.13	1.68
1956.46	1.28
1956.8	0.28
1957.13	0.48
1957.47	0.24
1957.8	0.52
1958.14	0.56
1958.47	1.36
1958.8	1.28
1959.14	1.04
1959.47	0.8
1959.81	1.24
1960.14	1.2
1960.48	1.72
1960.81	1.68
1961.14	1.84
1961.48	1.4
1961.81	1.6
1962.15	0.96
1962.48	0.76
1962.82	0.76
1963.15	0.72
1963.48	0.56
1963.82	0.76
1964.15	0.84
1964.49	0.48
1964.82	1.28
1965.15	1.2
1965.49	1.16
1965.82	1.08
1966.16	1.08
1966.49	1
1966.82	1.28
1967.16	1.12
1967.49	1.4
1967.83	1.6
1968.16	0.8
1968.49	0.72
1968.83	0.96
1969.16	0.96
1969.49	1.4
1969.83	1.52
1970.16	1.36
1970.49	1.12
1970.83	0.84
1971.16	0.32
1971.5	-0.04
1971.83	-0.04
1972.16	0.2
1972.5	0.36
1972.83	0.28
1973.16	0.56
1973.5	0.56
1973.83	0.48
1974.16	0.84
1974.5	0.64
1974.83	0.72
1975.16	0.76
1975.5	0.76
1975.83	0.56
1976.16	0.84
1976.49	0.76
1976.83	0.64
1977.16	0.48
1977.49	0.16
1977.83	0.24
1978.16	0.28
1978.49	0.36
1978.83	0.36
1979.16	0.52
1979.49	0.8
1979.83	0.76
1980.16	0.8
1980.49	0.8
1980.82	0.64
1981.16	0.32
1981.49	0.48
1981.82	0.2
1982.15	0.2
1982.49	0.28
1982.82	0.24
1983.15	0.04
1983.49	0.2
1983.82	0.24
1984.15	0.32
1984.48	0.32
1984.82	0.48
1985.15	0.72
1985.48	1.12
1985.81	1.44
1986.15	1.44
1986.48	1.44
1986.81	1.52
1987.14	1.24
1987.48	0.8
1987.81	0.96
1988.14	0.84
1988.47	0.8
1988.81	0.88
1989.14	1.32
1989.47	1.36
1989.8	1.36
1990.13	1.52
1990.47	1.8
1990.8	1.76
1991.13	1.52
1991.46	1.8
1991.79	1.24
1992.13	-0.04
1992.46	-0.04
1992.79	0.04
1993.12	8.21554e-17
1993.45	-0.12
1993.79	1.44
1994.12	1.44
1994.45	1.52
1994.78	1.76
1995.11	2.8
1995.45	2.16
1995.78	1.96
1996.11	2.28
1996.44	2.04
1996.77	2.08
1997.1	2.08
1997.44	2.2
1997.77	1.72
1998.1	2.04
1998.43	1.72
1998.76	1.64
1999.09	1.6
1999.43	0.6
1999.76	0.8
2000.09	0.52
2000.42	1.36
2000.75	0.68
2001.08	1.92
2001.41	1.68
2001.75	2.16
2002.08	1.76
2002.41	3.8
2002.74	3.6
2003.07	3.52
2003.4	3.8
2003.73	4.2
2004.06	3.52
2004.4	3.72
2004.73	3.8
2005.06	3.44
2005.39	2.92
2005.72	2.52
2006.05	2.92
2006.38	2.96
2006.71	2.8
2007.04	2.44
2007.37	2.12
2007.71	2.12
2008.04	2.44
2008.37	2.44
2008.7	2.6
2009.03	2.64
2009.36	2.08
2009.69	1.48
2010.02	2.08
2010.35	2.4
2010.68	3.44
2011.01	3.92
2011.34	4.44
2011.67	3.8
2012.01	3.88
2012.34	2.92
2012.67	2.72
2013	2.2
2013.33	3.04
2013.66	2.8
2013.99	2.92
2014.32	3.16
2014.65	3.04
2014.98	2.6
2015.31	2.48
2015.64	2.24
2015.97	2.04
2016.3	2.32
2016.63	2.16
2016.96	2.52
2017.29	2.36
2017.62	2.4
2017.95	2.12
2018.28	2.28
2018.61	2.72
2018.94	2.88
2019.27	3.08
2019.6	3.12
2019.93	2.8
2020.26	2.44
2020.59	2.24
2020.92	1.56
2021.25	1.96
2021.58	1.64
2021.91	1.76
2022.24	1.8
2022.57	2.76
2022.9	2.4
2023.23	2.44
2023.56	2.12
2023.89	2.36
2024.22	1.96
2024.55	1.68
2024.88	1.44
2025.21	1.28
2025.54	1.2
2025.87	0.76
2026.2	0.76
2026.53	1.52
2026.86	1.76
2027.19	2.08
2027.52	1.92
2027.85	2.12
2028.18	1.44
2028.51	1
2028.84	0.56
2029.16	0.56
2029.49	0.4
2029.82	0.64
2030.15	0.84
2030.48	0.08
2030.81	0.16
2031.14	0.28
2031.47	0.04
2031.8	-0.08
2032.13	0.52
2032.46	0.68
2032.79	0.6
2033.12	0.72
2033.44	0.64
2033.77	0.68
2034.1	0.76
2034.43	1
2034.76	0.8
2035.09	1.04
2035.42	1.2
2035.75	0.88
2036.08	0.72
2036.41	1.2
2036.73	1.16
2037.06	1
2037.39	1
2037.72	1.08
2038.05	0.6
2038.38	0.44
2038.71	0.6
2039.04	-0.4
2039.36	-0.56
2039.69	-0.48
2040.02	-1.04
2040.35	-1.12
2040.68	-0.08
2041.01	-0.16
2041.34	-0.16
2041.66	0.56
2041.99	0.48
2042.32	0.44
2042.65	0.48
2042.98	0.8
2043.31	0.72
2043.63	0.72
2043.96	0.8
2044.29	1.04
2044.62	0.64
2044.95	0.8
2045.28	0.8
2045.6	0.72
2045.93	0.48
2046.26	0.8
2046.59	0.6
2046.92	0.72
2047.24	0.72
2047.57	0.68
2047.9	0.48
2048.23	0.52
2048.56	0.4
2048.88	0.4
2049.21	0.56
2049.54	0.52
2049.87	0.28
2050.2	0.24
2050.52	0.32
2050.85	0.28
2051.18	0.84
2051.51	0.88
2051.83	1
2052.16	1.24
2052.49	1.12
2052.82	0.64
2053.15	0.6
2053.47	0.52
2053.8	0.2
2054.13	0.52
2054.46	0.36
2054.78	0.36
2055.11	0.44
2055.44	0.28
2055.77	0.24
2056.09	0.44
2056.42	0.44
2056.75	0.36
2057.08	0.56
2057.4	0.28
2057.73	0.24
2058.06	0.64
2058.38	0.76
2058.71	0.8
2059.04	1.08
2059.37	0.92
2059.69	1
2060.02	0.92
2060.35	0.92
2060.67	0.64
2061	0.68
2061.33	2.77556e-17
2061.66	0.04
2061.98	0.16
2062.31	0.16
2062.64	0.44
2062.96	0.88
2063.29	1.24
2063.62	1.28
2063.94	1.28
2064.27	1.04
2064.6	-1.11022e-16
2064.92	-0.24
2065.25	-0.32
2065.58	0.28
2065.91	0.32
2066.23	1.36
2066.56	1.4
2066.89	1.32
2067.21	0.96
2067.54	1.12
2067.87	0.88
2068.19	0.84
2068.52	0.8
2068.84	0.96
2069.17	0.68
2069.5	0.88
2069.82	0.72
2070.15	0.84
2070.48	0.44
2070.8	0.52
2071.13	0.48
2071.46	0.4
2071.78	0.44
2072.11	0.68
2072.43	0.8
2072.76	0.92
2073.09	1.12
2073.41	1.28
2073.74	1.04
2074.07	1
2074.39	0.72
2074.72	0.96
2075.04	0.68
2075.37	0.84
2075.7	0.72
2076.02	0.72
2076.35	0.4
2076.67	0.36
2077	0.36
2077.33	1.04
2077.65	1.16
2077.98	1.16
2078.3	1.12
2078.63	1.32
2078.95	0.84
2079.28	0.92
2079.61	0.24
2079.93	0.76
2080.26	0.6
2080.58	0.4
2080.91	0.4
2081.23	0.96
2081.56	0.56
2081.89	0.8
2082.21	1
2082.54	1.16
2082.86	1.24
2083.19	1.12
2083.51	0.72
2083.84	0.6
2084.16	0.24
2084.49	0.36
2084.81	0.36
2085.14	0.32
2085.46	0.52
2085.79	1.16
2086.12	0.96
2086.44	1.04
2086.77	1.48
2087.09	1.64
2087.42	1
2087.74	1.04
2088.07	1.24
2088.39	1.24
2088.72	0.76
2089.04	1.24
2089.37	1.24
2089.69	1
2090.02	0.8
2090.34	0.76
2090.67	0.28
2090.99	-1.6
2091.32	-1.48
2091.64	-1.56
2091.97	-1.48
2092.29	-1.48
2092.62	0.4
2092.94	0.44
2093.26	0.68
2093.59	0.88
2093.91	-0.32
2094.24	-0.16
2094.56	-0.12
2094.89	-0.48
2095.21	-0.52
2095.54	0.84
2095.86	0.76
2096.19	0.8
2096.51	0.76
2096.84	0.92
2097.16	0.96
2097.48	0.88
2097.81	0.6
2098.13	0.6
2098.46	0.24
2098.78	0.12
2099.11	0.16
2099.43	0.24
2099.75	0.48
2100.08	0.76
2100.4	0.76
2100.73	1.16
2101.05	1.32
2101.38	1.16
2101.7	1.2
2102.02	1.12
2102.35	0.84
2102.67	0.68
2103	0.6
2103.32	0.28
2103.64	0.48
2103.97	0.44
2104.29	0.88
2104.62	1.08
2104.94	1.12
2105.26	0.32
2105.59	0.24
2105.91	-0.24
2106.23	-0.44
2106.56	-0.44
2106.88	0.2
2107.21	0.24
2107.53	0.36
2107.85	0.48
2108.18	0.76
2108.5	0.72
2108.82	0.72
2109.15	0.72
2109.47	0.6
2109.79	0.32
2110.12	0.4
2110.44	0.28
2110.76	0.28
2111.09	0.72
2111.41	0.68
2111.73	0.6
2112.06	0.6
2112.38	0.88
2112.7	-0.16
2113.03	-0.16
2113.35	-0.12
2113.67	-0.12
2114	-0.28
2114.32	0.36
2114.64	0.36
2114.97	0.32
2115.29	0.32
2115.61	0.04
2115.94	0.28
2116.26	0.36
2116.58	0.64
2116.91	-0.16
2117.23	-0.16
2117.55	-0.36
2117.87	-0.2
2118.2	-0.48
2118.52	0.36
2118.84	0.36
2119.17	0.4
2119.49	0.16
2119.81	0.2
2120.13	0.64
2120.46	0.84
2120.78	-0.16
2121.1	0.08
2121.42	0.36
2121.75	0.04
2122.07	-0.16
2122.39	1
2122.72	0.92
2123.04	0.76
2123.36	0.8
2123.68	1
2124.01	0.96
2124.33	0.8
2124.65	0.64
2124.97	0.52
2125.29	0.64
2125.62	0.44
2125.94	0.44
2126.26	0.72
2126.58	0.64
2126.91	-0.4
2127.23	-0.44
2127.55	-0.2
2127.87	-0.48
2128.2	-0.48
2128.52	0.4
2128.84	0.6
2129.16	0.36
2129.48	0.52
2129.81	0.56
2130.13	0.84
2130.45	0.92
2130.77	1.12
2131.09	1.68
2131.42	1.92
2131.74	1.76
2132.06	1.48
2132.38	1.32
2132.7	0.6
2133.02	0.32
2133.35	0.12
2133.67	0.32
2133.99	0.88
2134.31	0.28
2134.63	0.44
2134.96	0.64
2135.28	0.44
2135.6	-4.10777e-17
2135.92	0.68
2136.24	0.52
2136.56	0.36
2136.88	0.36
2137.21	0.2
2137.53	0.12
2137.85	0.16
2138.17	0.32
2138.49	0.32
2138.81	0.32
2139.13	0.36
2139.46	0.36
2139.78	0.12
2140.1	0.2
2140.42	0.52
2140.74	0.48
2141.06	0.44
2141.38	0.4
2141.7	0.56
2142.03	0.24
2142.35	0.44
2142.67	0.64
2142.99	0.84
2143.31	0.6
2143.63	0.6
2143.95	0.48
2144.27	0.36
2144.59	0.36
2144.91	0.48
2145.24	0.52
2145.56	0.44
2145.88	0.44
2146.2	0.28
2146.52	0.32
2146.84	0.48
2147.16	0.48
2147.48	0.4
2147.8	0.56
2148.12	0.4
2148.44	0.24
2148.76	0.36
2149.08	0.48
2149.41	0.28
2149.73	0.28
2150.05	0.28
2150.37	0.2
2150.69	0.2
2151.01	0.28
2151.33	0.4
2151.65	0.44
2151.97	0.76
2152.29	0.64
2152.61	0.24
2152.93	0.28
2153.25	0.56
2153.57	0.36
2153.89	0.68
2154.21	0.68
2154.53	0.64
2154.85	0.36
2155.17	0.52
2155.49	-2.77556e-17
2155.81	0.52
2156.13	0.4
2156.45	0.32
2156.77	0
2157.09	0.24
2157.41	0.04
2157.73	0.8
2158.05	0.84
2158.37	0.96
2158.69	1.08
2159.01	1.08
2159.33	0.32
2159.65	0.44
2159.97	0.32
2160.29	0.36
2160.61	0.8
2160.93	0.88
2161.25	0.92
2161.57	1.04
2161.89	0.84
2162.21	0.4
2162.53	0.32
2162.85	-0.32
2163.17	-0.2
2163.49	0.08
2163.81	0.64
2164.13	0.72
2164.45	0.56
2164.77	0.44
2165.08	0.32
2165.4	-0.16
2165.72	-0.24
2166.04	0.52
2166.36	0.4
2166.68	0.28
2167	0.24
2167.32	0.36
2167.64	0.28
2167.96	0.28
2168.28	0.24
2168.6	0.36
2168.92	0.24
2169.24	0.16
2169.55	0.32
2169.87	0.52
2170.19	0.36
2170.51	0.48
2170.83	0.52
2171.15	0.48
2171.47	0.4
2171.79	0.48
2172.11	0.36
2172.43	0.76
2172.74	0.64
2173.06	0.52
2173.38	0.68
2173.7	0.68
2174.02	0.24
2174.34	0.24
2174.66	0.88
2174.98	0.88
2175.29	0.92
2175.61	0.92
2175.93	0.92
2176.25	0.36
2176.57	0.4
2176.89	0.36
2177.21	0.36
2177.52	0.36
2177.84	0.4
2178.16	0.16
2178.48	0.16
2178.8	0.16
2179.12	0.24
2179.43	0.32
2179.75	-0.64
2180.07	-0.64
2180.39	-0.64
2180.71	-0.72
2181.03	-0.68
2181.34	0.48
2181.66	0.48
2181.98	0.48
2182.3	0.48
2182.62	0.36
2182.93	-0.28
2183.25	-0.2
2183.57	0
2183.89	0.16
2184.21	0.16
2184.52	0.56
2184.84	0.64
2185.16	0.52
2185.48	0.4
2185.8	0.52
2186.11	0.52
2186.43	0.6
2186.75	0.52
2187.07	0.2
2187.39	-0.56
2187.7	-0.52
2188.02	-1.16
2188.34	-1.08
2188.66	-0.72
2188.97	-0.16
2189.29	-0.2
2189.61	0.36
2189.93	0.28
2190.24	0.2
2190.56	0.36
2190.88	0.36
2191.2	0.24
2191.51	0.4
2191.83	0.84
2192.15	1
2192.47	1
2192.78	1.04
2193.1	1.28
2193.42	0.88
2193.74	0.52
2194.05	0.64
2194.37	0.56
2194.69	0.16
2195	-0.04
2195.32	0.16
2195.64	0.04
2195.96	0.04
2196.27	0.16
2196.59	-0.28
2196.91	-0.48
2197.22	-0.48
2197.54	-0.16
2197.86	0.16
2198.18	0.84
2198.49	1
2198.81	1.04
2199.13	0.72
2199.44	0.4
2199.76	0.4
2200.08	0.24
2200.39	0.24
2200.71	0.4
2201.03	0.4
2201.34	0.36
2201.66	0.36
2201.98	0.36
2202.29	0.2
2202.61	0.16
2202.93	0.24
2203.24	0.24
2203.56	0.28
2203.88	0.28
2204.19	0.4
2204.51	1
2204.83	1
2205.14	0.92
2205.46	1.16
2205.78	0.96
2206.09	0.24
2206.41	0.24
2206.72	0.28
2207.04	0.44
2207.36	0.2
2207.67	0.2
2207.99	0.2
2208.31	0.52
2208.62	0.12
2208.94	0.36
2209.25	0.48
2209.57	0.48
2209.89	0.16
2210.2	0.24
2210.52	0.24
2210.83	0.32
2211.15	0.32
2211.47	0.36
2211.78	0.4
2212.1	0
2212.41	-0.2
2212.73	-0.12
2213.05	0.12
2213.36	0.04
2213.68	0.44
2213.99	0.72
2214.31	0.68
2214.62	0.36
2214.94	0.4
2215.26	0.4
2215.57	0.12
2215.89	0.16
2216.2	0.32
2216.52	0.32
2216.83	0.36
2217.15	0.36
2217.46	0.36
2217.78	0.2
2218.1	-0.08
2218.41	-0.12
2218.73	-0.12
2219.04	-0.2
2219.36	-0.08
2219.67	0.2
2219.99	0.24
2220.3	0.24
2220.62	0.24
2220.93	0.16
2221.25	0.48
2221.56	0.48
2221.88	0.52
2222.19	0.52
2222.51	0.52
2222.82	-1.08
2223.14	-0.96
2223.45	-0.8
2223.77	-0.8
2224.08	-0.8
2224.4	0.4
2224.71	0.24
2225.03	0.04
2225.34	0.36
2225.66	-0.92
2225.97	-0.84
2226.29	-0.76
2226.6	-0.68
2226.92	-1
2227.23	0.36
2227.55	0.32
2227.86	0.36
2228.18	0.28
2228.49	0.4
2228.81	0.36
2229.12	0.32
2229.44	0.44
2229.75	0.44
2230.07	0.48
2230.38	0.48
2230.69	0.52
2231.01	0.28
2231.32	0.44
2231.64	0.28
2231.95	0.24
2232.27	0.36
2232.58	0.36
2232.9	0.2
2233.21	0.32
2233.52	0.28
2233.84	0.12
2234.15	0.16
2234.47	0.48
2234.78	0.84
2235.1	1
2235.41	1.52
2235.72	1.56
2236.04	1.32
2236.35	0.84
2236.67	0.08
2236.98	-0.44
2237.29	-0.36
2237.61	-0.44
2237.92	-0.24
2238.24	0.44
2238.55	0.52
2238.86	0.36
2239.18	0.52
2239.49	-0.36
2239.8	-0.44
2240.12	-0.12
2240.43	-0.12
2240.75	-0.16
2241.06	0.6
2241.37	0.76
2241.69	0.36
2242	0.64
2242.31	0.52
2242.63	0.64
2242.94	0.56
2243.26	0.08
2243.57	2.77556e-17
2243.88	0.12
2244.2	0.08
2244.51	0.32
2244.82	1.08
2245.14	0.88
2245.45	0.76
2245.76	0.6
2246.08	0.4
2246.39	0.6
2246.7	0.76
2247.02	0.8
2247.33	0.8
2247.64	0.68
2247.96	0.6
2248.27	0.44
2248.58	-0.6
2248.9	-0.6
2249.21	-0.6
2249.52	-1
2249.83	-0.92
2250.15	0.08
2250.46	0.52
2250.77	0.6
2251.09	0.6
2251.4	0.72
2251.71	0.76
2252.03	0.32
2252.34	0.44
2252.65	0.56
2252.96	0.36
2253.28	0.32
2253.59	0.32
2253.9	0.16
2254.21	0.12
2254.53	0.12
2254.84	-0.12
2255.15	-0.12
2255.47	-0.12
2255.78	-0.12
2256.09	0.16
2256.4	0.76
2256.72	0.92
2257.03	1.04
2257.34	0.96
2257.65	0.68
2257.97	0.4
2258.28	0.4
2258.59	0.6
2258.9	0.8
2259.22	0.84
2259.53	0.8
2259.84	0.84
2260.15	0.48
2260.46	0.32
2260.78	0.28
2261.09	0.52
2261.4	0.48
2261.71	0.48
2262.03	0.44
2262.34	0.56
2262.65	0.44
2262.96	0.44
2263.27	0.44
2263.59	0.44
2263.9	0.36
2264.21	0.2
2264.52	0.04
2264.83	0.68
2265.15	0.72
2265.46	1.2
2265.77	1.48
2266.08	1.48
2266.39	1.08
2266.7	1.04
2267.02	0.52
2267.33	-0.08
2267.64	-0.08
2267.95	-0.16
2268.26	-0.16
2268.57	-0.12
2268.89	0.4
2269.2	0.76
2269.51	0.72
2269.82	0.92
2270.13	1.24
2270.44	1.24
2270.76	0.48
2271.07	0.36
2271.38	-0.44
2271.69	-0.56
2272	-0.76
2272.31	-0.28
2272.62	-0.88
2272.93	-0.04
2273.25	-0.2
2273.56	0
2273.87	0.08
2274.18	0.68
2274.49	0.44
2274.8	0.44
2275.11	0.24
2275.42	0.08
2275.74	0.24
2276.05	0.24
2276.36	0.36
2276.67	0.36
2276.98	0.36
2277.29	0.2
2277.6	0.48
2277.91	0.28
2278.22	0.44
2278.53	0.48
2278.85	0.48
2279.16	-0.8
2279.47	-0.56
2279.78	-0.68
2280.09	-0.72
2280.4	-0.72
2280.71	0.28
2281.02	0.04
2281.33	0
2281.64	0.04
2281.95	0.2
2282.26	0.48
2282.57	0.48
2282.88	0.56
2283.19	0.96
2283.5	1.04
2283.82	0.92
2284.13	0.92
2284.44	1
2284.75	0.16
2285.06	0.16
2285.37	0.08
2285.68	0.08
2285.99	0.08
2286.3	0.64
2286.61	0.68
2286.92	0.68
2287.23	0.92
2287.54	0.76
2287.85	0.88
2288.16	0.6
2288.47	0.64
2288.78	0.4
2289.09	0.48
2289.4	0.32
2289.71	0.48
2290.02	0.36
2290.33	0.36
2290.64	0.28
2290.95	-0.04
2291.26	-0.04
2291.57	0.28
2291.88	-0.12
2292.19	6.66107e-18
2292.5	0.2
2292.81	0.04
2293.12	-0.28
2293.43	0.12
2293.74	0
2294.05	0
2294.36	0
2294.67	0
2294.98	0
2295.29	0
2295.6	0
2295.91	0
2296.21	0
2296.52	0
2296.83	0
2297.14	0
2297.45	0
2297.76	0
2298.07	0
2298.38	0
2298.69	0
2299	0
2299.31	0
2299.62	0
2299.93	0
2300.24	0
2300.55	0
2300.85	0
2301.16	0
2301.47	0
2301.78	0
2302.09	0
2302.4	0
2302.71	0
2303.02	0
2303.33	0
2303.64	0
2303.94	0
2304.25	0
2304.56	0
2304.87	0
2305.18	0
2305.49	0
2305.8	0
2306.11	0
2306.42	0
2306.72	0
2307.03	0
2307.34	0
2307.65	0
2307.96	0
2308.27	0
2308.58	0
2308.88	0
2309.19	0
2309.5	0
2309.81	0
2310.12	0
2310.43	0
2310.74	0
2311.04	0
2311.35	0
2311.66	0
2311.97	0
2312.28	0
2312.59	0
2312.89	0
2313.2	0
2313.51	0
2313.82	0
2314.13	0
2314.43	0
2314.74	0
2315.05	0
2315.36	0
2315.67	0
2315.97	0
2316.28	0
2316.59	0
2316.9	0
2317.21	0
2317.51	0
2317.82	0
2318.13	0
2318.44	0
2318.75	0
2319.05	0
2319.36	0
2319.67	0
2319.98	0
2320.28	0
2320.59	0
2320.9	0
2321.21	0
2321.51	0
2321.82	0
2322.13	0
2322.44	0
2322.74	0
2323.05	0
2323.36	0
2323.67	0
2323.97	0
2324.28	0
2324.59	0
2324.9	0
2325.2	0
2325.51	0
2325.82	0
2326.13	0
2326.43	0
2326.74	0
2327.05	0
2327.35	0
2327.66	0
2327.97	0
2328.27	0
2328.58	0
2328.89	0
2329.2	0
2329.5	0
2329.81	0
2330.12	0
2330.42	0
2330.73	0
2331.04	0
2331.34	0
2331.65	0
2331.96	0
2332.26	0
2332.57	0
2332.88	0
2333.18	0
2333.49	0
2333.8	0
2334.1	0
2334.41	0
2334.72	0
2335.02	0
2335.33	0
2335.64	0
2335.94	0
2336.25	0
2336.56	0
2336.86	0
2337.17	0
2337.48	0
2337.78	0
2338.09	0
2338.39	0
2338.7	0
2339.01	0
2339.31	0
2339.62	0
2339.93	0
2340.23	0
2340.54	0
2340.84	0
2341.15	0
2341.46	0
2341.76	0
2342.07	0
2342.37	0
2342.68	0
2342.99	0
2343.29	0
2343.6	0
2343.9	0
2344.21	0
2344.51	0
2344.82	0
2345.13	0
2345.43	0
2345.74	0
2346.04	0
2346.35	0
2346.65	0
2346.96	0
2347.27	0
2347.57	0
2347.88	0
2348.18	0
2348.49	0
2348.79	0
2349.1	0
2349.4	0
2349.71	0
2350.01	0
2350.32	0
2350.63	0
2350.93	0
2351.24	0
2351.54	0
2351.85	0
2352.15	0
2352.46	0
2352.76	0
2353.07	0
2353.37	0
2353.68	0
2353.98	0
2354.29	0
2354.59	0
2354.9	0
2355.2	0
2355.51	0
2355.81	0
2356.12	0
2356.42	0
2356.73	0
2357.03	0
2357.34	0
2357.64	0
2357.95	0
2358.25	0
2358.55	0
2358.86	0
2359.16	0
2359.47	0
2359.77	0
2360.08	0
2360.38	0
2360.69	0
2360.99	0
2361.3	0
2361.6	0
2361.9	0
2362.21	0
2362.51	0
2362.82	0
2363.12	0
2363.43	0
2363.73	0
2364.04	0
2364.34	0
2364.64	0
2364.95	0
2365.25	0
2365.56	0
2365.86	0
2366.16	0
2366.47	0
2366.77	0
2367.08	0
2367.38	0
2367.68	0
2367.99	0
2368.29	0
2368.6	0
2368.9	0
2369.2	0
2369.51	0
2369.81	0
2370.12	0
2370.42	0
2370.72	0
2371.03	0
2371.33	0
2371.63	0
2371.94	0
2372.24	0
2372.55	0
2372.85	0
2373.15	0
2373.46	0
2373.76	0
2374.06	0
2374.37	0
2374.67	0
2374.97	0
2375.28	0
2375.58	0
2375.88	0
2376.19	0
2376.49	0
2376.79	0
2377.1	0
2377.4	0
2377.7	0
2378.01	0
2378.31	0
2378.61	0
2378.92	0
2379.22	0
2379.52	0
2379.82	0
2380.13	0
2380.43	0
2380.73	0
2381.04	0
2381.34	0
2381.64	0
2381.95	0
2382.25	0
2382.55	0
2382.85	0
2383.16	0
2383.46	0
2383.76	0
2384.06	0
2384.37	0
2384.67	0
2384.97	0
2385.28	0
2385.58	0
2385.88	0
2386.18	0
2386.49	0
2386.79	0
2387.09	0
2387.39	0
2387.69	0
2388	0
2388.3	0
2388.6	0
2388.9	0
2389.21	0
2389.51	0
2389.81	0
2390.11	0
2390.42	0
2390.72	0
2391.02	0
2391.32	0
2391.62	0
2391.93	0
2392.23	0
2392.53	0
2392.83	0
2393.13	0
2393.44	0
2393.74	0
2394.04	0
2394.34	0
2394.64	0
2394.95	0
2395.25	0
2395.55	0
2395.85	0
2396.15	0
2396.45	0
2396.76	0
2397.06	0
2397.36	0
2397.66	0
2397.96	0
2398.26	0
2398.57	0
2398.87	0
2399.17	0
2399.47	0
2399.77	0
2400.07	0
2400.37	0
2400.68	0
2400.98	0
2401.28	0
2401.58	0
2401.88	0
2402.18	0
2402.48	0
2402.79	0
2403.09	0
2403.39	0
2403.69	0
2403.99	0
2404.29	0
2404.59	0
2404.89	0
2405.19	0
2405.5	0
2405.8	0
2406.1	0
2406.4	0
2406.7	0
2407	0
2407.3	0
2407.6	0
2407.9	0
2408.2	0
2408.5	0
2408.8	0
2409.11	0
2409.41	0
2409.71	0
2410.01	0
2410.31	0
2410.61	0
2410.91	0
2411.21	0
2411.51	0
2411.81	0
2412.11	0
2412.41	0
2412.71	0
2413.01	0
2413.31	0
2413.61	0
2413.91	0
2414.21	0
2414.51	0
2414.81	0
2415.12	0
2415.42	0
2415.72	0
2416.02	0
2416.32	0
2416.62	0
2416.92	0
2417.22	0
2417.52	0
2417.82	0
2418.12	0
2418.42	0
2418.72	0
2419.02	0
2419.32	0
2419.62	0
2419.92	0
2420.22	0
2420.52	0
2420.82	0
2421.12	0
2421.42	0
2421.71	0
2422.01	0
2422.31	0
2422.61	0
2422.91	0
2423.21	0
2423.51	0
2423.81	0
2424.11	0
2424.41	0
2424.71	0
2425.01	0
2425.31	0
2425.61	0
2425.91	0
2426.21	0
2426.51	0
2426.81	0
2427.11	0
2427.41	0
2427.7	0
2428	0
2428.3	0
2428.6	0
2428.9	0
2429.2	0
2429.5	0
2429.8	0
2430.1	0
2430.4	0
2430.7	0
2430.99	0
2431.29	0
2431.59	0
2431.89	0
2432.19	0
2432.49	0
2432.79	0
2433.09	0
2433.39	0
2433.68	0
2433.98	0
2434.28	0
2434.58	0
2434.88	0
2435.18	0
2435.48	0
2435.78	0
2436.07	0
2436.37	0
2436.67	0
2436.97	0
2437.27	0
2437.57	0
2437.86	0
2438.16	0
2438.46	0
2438.76	0
2439.06	0
2439.36	0
2439.66	0
2439.95	0
2440.25	0
2440.55	0
2440.85	0
2441.15	0
2441.44	0
2441.74	0
2442.04	0
2442.34	0
2442.64	0
2442.93	0
2443.23	0
2443.53	0
2443.83	0
2444.13	0
2444.42	0
2444.72	0
2445.02	0
2445.32	0
2445.62	0
2445.91	0
2446.21	0
2446.51	0
2446.81	0
2447.1	0
2447.4	0
2447.7	0
2448	0
2448.3	0
2448.59	0
2448.89	0
2449.19	0
2449.49	0
2449.78	0
2450.08	0
2450.38	0
2450.68	0
2450.97	0
2451.27	0
2451.57	0
2451.87	0
2452.16	0
2452.46	0
2452.76	0
2453.05	0
2453.35	0
2453.65	0
2453.95	0
2454.24	0
2454.54	0
2454.84	0
2455.13	0
2455.43	0
2455.73	0
2456.03	0
2456.32	0
2456.62	0
2456.92	0
2457.21	0
2457.51	0
2457.81	0
2458.1	0
2458.4	0
2458.7	0
2458.99	0
2459.29	0
2459.59	0
2459.88	0
2460.18	0
2460.48	0
2460.77	0
2461.07	0
2461.37	0
2461.66	0
2461.96	0
2462.26	0
2462.55	0
2462.85	0
2463.15	0
2463.44	0
2463.74	0
2464.04	0
2464.33	0
2464.63	0
2464.92	0
2465.22	0
2465.52	0
2465.81	0
2466.11	0
2466.41	0
2466.7	0
2467	0
2467.29	0
2467.59	0
2467.89	0
2468.18	0
2468.48	0
2468.77	0
2469.07	0
2469.37	0
2469.66	0
2469.96	0
2470.25	0
2470.55	0
2470.84	0
2471.14	0
2471.44	0
2471.73	0
2472.03	0
2472.32	0
2472.62	0
2472.91	0
2473.21	0
2473.51	0
2473.8	0
2474.1	0
2474.39	0
2474.69	0
2474.98	0
2475.28	0
2475.57	0
2475.87	0
2476.17	0
2476.46	0
2476.76	0
2477.05	0
2477.35	0
2477.64	0
2477.94	0
2478.23	0
2478.53	0
2478.82	0
2479.12	0
2479.41	0
2479.71	0
2480	0
2480.3	0
2480.59	0
2480.89	0
2481.18	0
2481.48	0
2481.77	0
2482.07	0
2482.36	0
2482.66	0
2482.95	0
2483.25	0
2483.54	0
2483.84	0
2484.13	0
2484.43	0
2484.72	0
2485.02	0
2485.31	0
2485.6	0
2485.9	0
2486.19	0
2486.49	0
2486.78	0
2487.08	0
2487.37	0
2487.67	0
2487.96	0
2488.26	0
2488.55	0
2488.84	0
2489.14	0
2489.43	0
2489.73	0
2490.02	0
2490.32	0
2490.61	0
2490.9	0
2491.2	0
2491.49	0
2491.79	0
2492.08	0
2492.37	0
2492.67	0
2492.96	0
2493.26	0
2493.55	0
2493.84	0
2494.14	0
2494.43	0
2494.73	0
2495.02	0
2495.31	0
2495.61	0
2495.9	0
2496.2	0
2496.49	0
2496.78	0
2497.08	0
2497.37	0
2497.66	0
2497.96	0
2498.25	0
2498.54	0
2498.84	0
2499.13	0
2499.43	0
2499.72	0
2500.01	0
2500.31	0
2500.6	0
2500.89	0
2501.19	0
2501.48	0
2501.77	0
2502.07	0
2502.36	0
2502.65	0
2502.95	0
2503.24	0
2503.53	0
2503.82	0
2504.12	0
2504.41	0
2504.7	0
2505	0
2505.29	0
2505.58	0
2505.88	0
2506.17	0
2506.46	0
2506.76	0
2507.05	0
2507.34	0
2507.63	0
2507.93	0
2508.22	0
2508.51	0
2508.8	0
2509.1	0
2509.39	0
2509.68	0
2509.98	0
2510.27	0
2510.56	0
2510.85	0
2511.15	0
2511.44	0
2511.73	0
2512.02	0
2512.32	0
2512.61	0
2512.9	0
2513.19	0
2513.49	0
2513.78	0
2514.07	0
2514.36	0
2514.65	0
2514.95	0
2515.24	0
2515.53	0
2515.82	0
2516.12	0
2516.41	0
2516.7	0
2516.99	0
2517.28	0
2517.58	0
2517.87	0
2518.16	0
2518.45	0
2518.74	0
2519.04	0
2519.33	0
2519.62	0
2519.91	0
2520.2	0
2520.5	0
2520.79	0
2521.08	0
2521.37	0
2521.66	0
2521.95	0
2522.25	0
2522.54	0
2522.83	0
2523.12	0
2523.41	0
2523.7	0
2523.99	0
2524.29	0
2524.58	0
2524.87	0
2525.16	0
2525.45	0
2525.74	0
2526.03	0
2526.33	0
2526.62	0
2526.91	0
2527.2	0
2527.49	0
2527.78	0
2528.07	0
2528.36	0
2528.66	0
2528.95	0
2529.24	0
2529.53	0
2529.82	0
2530.11	0
2530.4	0
2530.69	0
2530.98	0
2531.27	0
2531.57	0
2531.86	0
2532.15	0
2532.44	0
2532.73	0
2533.02	0
2533.31	0
2533.6	0
2533.89	0
2534.18	0
2534.47	0
2534.76	0
2535.05	0
2535.35	0
2535.64	0
2535.93	0
2536.22	0
2536.51	0
2536.8	0
2537.09	0
2537.38	0
2537.67	0
2537.96	0
2538.25	0
2538.54	0
2538.83	0
2539.12	0
2539.41	0
2539.7	0
2539.99	0
2540.28	0
2540.57	0
2540.86	0
2541.15	0
2541.44	0
2541.73	0
2542.02	0
2542.31	0
2542.6	0
2542.89	0
2543.18	0
2543.47	0
2543.76	0
2544.05	0
2544.34	0
2544.63	0
2544.92	0
2545.21	0
2545.5	0
2545.79	0
2546.08	0
2546.37	0
2546.66	0
2546.95	0
2547.24	0
2547.53	0
2547.82	0
2548.11	0
2548.4	0
2548.69	0
2548.98	0
2549.27	0
2549.55	0
2549.84	0
2550.13	0
2550.42	0
2550.71	0
2551	0
2551.29	0
2551.58	0
2551.87	0
2552.16	0
2552.45	0
2552.74	0
2553.03	0
2553.31	0
2553.6	0
2553.89	0
2554.18	0
2554.47	0
2554.76	0
2555.05	0
2555.34	0
2555.63	0
2555.92	0
2556.2	0
2556.49	0
2556.78	0
2557.07	0
2557.36	0
2557.65	0
2557.94	0
2558.23	0
2558.51	0
2558.8	0
2559.09	0
2559.38	0
2559.67	0
2559.96	0
2560.25	0
2560.53	0
2560.82	0
2561.11	0
2561.4	0
2561.69	0
2561.98	0
2562.27	0
2562.55	0
2562.84	0
2563.13	0
2563.42	0
2563.71	0
2564	0
2564.28	0
2564.57	0
2564.86	0
2565.15	0
2565.44	0
2565.72	0
2566.01	0
2566.3	0
2566.59	0
2566.88	0
2567.16	0
2567.45	0
2567.74	0
2568.03	0
2568.32	0
2568.6	0
2568.89	0
2569.18	0
2569.47	0
2569.75	0

