Source: Spectrum Viewer

Chart: Pulse Spectrum

Series: 
Wavelength (nm)	S (a.u.)
1179.9	0
1180.29	0
1180.68	0
1181.06	0
1181.45	0
1181.83	0
1182.22	0
1182.6	0
1182.99	0
1183.38	0
1183.76	0
1184.15	0
1184.53	0
1184.92	0
1185.3	0
1185.69	0
1186.07	0
1186.46	0
1186.85	0
1187.23	0
1187.62	0
1188	0
1188.39	0
1188.77	0
1189.16	0
1189.54	0
1189.93	0
1190.31	0
1190.7	0
1191.08	0
1191.47	0
1191.85	0
1192.24	0
1192.62	0
1193.01	0
1193.39	0
1193.78	0
1194.16	0
1194.55	0
1194.93	0
1195.32	0
1195.7	0
1196.09	0
1196.47	0
1196.86	0
1197.24	0
1197.63	0
1198.01	0
1198.4	0
1198.78	0
1199.16	0
1199.55	0
1199.93	0
1200.32	0
1200.7	0
1201.09	0
1201.47	0
1201.86	0
1202.24	0
1202.63	0
1203.01	0
1203.39	0
1203.78	0
1204.16	0
1204.55	0
1204.93	0
1205.32	0
1205.7	0
1206.08	0
1206.47	0
1206.85	0
1207.24	0
1207.62	0
1208	0
1208.39	0
1208.77	0
1209.16	0
1209.54	0
1209.92	0
1210.31	0
1210.69	0
1211.08	0
1211.46	0
1211.84	0
1212.23	0
1212.61	0
1213	0
1213.38	0
1213.76	0
1214.15	0
1214.53	0
1214.91	0
1215.3	0
1215.68	0
1216.06	0
1216.45	0
1216.83	0
1217.22	0
1217.6	0
1217.98	0
1218.37	0
1218.75	0
1219.13	0
1219.52	0
1219.9	0
1220.28	0
1220.67	0
1221.05	0
1221.43	0
1221.82	0
1222.2	0
1222.58	0
1222.97	0
1223.35	0
1223.73	0
1224.11	0
1224.5	0
1224.88	0
1225.26	0
1225.65	0
1226.03	0
1226.41	0
1226.8	0
1227.18	0
1227.56	0
1227.94	0
1228.33	0
1228.71	0
1229.09	0
1229.47	0
1229.86	0
1230.24	0
1230.62	0
1231.01	0
1231.39	0
1231.77	0
1232.15	0
1232.54	0
1232.92	0
1233.3	0
1233.68	0
1234.07	0
1234.45	0
1234.83	0
1235.21	0
1235.6	0
1235.98	0
1236.36	0
1236.74	0
1237.12	0
1237.51	0
1237.89	0
1238.27	0
1238.65	0
1239.04	0
1239.42	0
1239.8	0
1240.18	0
1240.56	0
1240.95	0
1241.33	0
1241.71	0
1242.09	0
1242.47	0
1242.86	0
1243.24	0
1243.62	0
1244	0
1244.38	0
1244.77	0
1245.15	0
1245.53	0
1245.91	0
1246.29	0
1246.67	0
1247.06	0
1247.44	0
1247.82	0
1248.2	0
1248.58	0
1248.96	0
1249.34	0
1249.73	0
1250.11	0
1250.49	0
1250.87	0
1251.25	0
1251.63	0
1252.01	0
1252.4	0
1252.78	0
1253.16	0
1253.54	0
1253.92	0
1254.3	0
1254.68	0
1255.06	0
1255.45	0
1255.83	0
1256.21	0
1256.59	0
1256.97	0
1257.35	0
1257.73	0
1258.11	0
1258.49	0
1258.87	0
1259.26	0
1259.64	0
1260.02	0
1260.4	0
1260.78	0
1261.16	0
1261.54	0
1261.92	0
1262.3	0
1262.68	0
1263.06	0
1263.44	0
1263.82	0
1264.21	0
1264.59	0
1264.97	0
1265.35	0
1265.73	0
1266.11	0
1266.49	0
1266.87	0
1267.25	0
1267.63	0
1268.01	0
1268.39	0
1268.77	0
1269.15	0
1269.53	0
1269.91	0
1270.29	0
1270.67	0
1271.05	0
1271.43	0
1271.81	0
1272.19	0
1272.57	0
1272.95	0
1273.33	0
1273.71	0
1274.09	0
1274.47	0
1274.85	0
1275.23	0
1275.61	0
1275.99	0
1276.37	0
1276.75	0
1277.13	0
1277.51	0
1277.89	0
1278.27	0
1278.65	0
1279.03	0
1279.41	0
1279.79	0
1280.17	0
1280.55	0
1280.93	0
1281.31	0
1281.69	0
1282.07	0
1282.45	0
1282.82	0
1283.2	0
1283.58	0
1283.96	0
1284.34	0
1284.72	0
1285.1	0
1285.48	0
1285.86	0
1286.24	0
1286.62	0
1287	0
1287.38	0
1287.75	0
1288.13	0
1288.51	0
1288.89	0
1289.27	0
1289.65	0
1290.03	0
1290.41	0
1290.79	0
1291.17	0
1291.54	0
1291.92	0
1292.3	0
1292.68	0
1293.06	0
1293.44	0
1293.82	0
1294.2	0
1294.57	0
1294.95	0
1295.33	0
1295.71	0
1296.09	0
1296.47	0
1296.85	0
1297.22	0
1297.6	0
1297.98	0
1298.36	0
1298.74	0
1299.12	0
1299.5	0
1299.87	0
1300.25	0
1300.63	0
1301.01	0
1301.39	0
1301.77	0
1302.14	0
1302.52	0
1302.9	0
1303.28	0
1303.66	0
1304.03	0
1304.41	0
1304.79	0
1305.17	0
1305.55	0
1305.92	0
1306.3	0
1306.68	0
1307.06	0
1307.44	0
1307.81	0
1308.19	0
1308.57	0
1308.95	0
1309.32	0
1309.7	0
1310.08	0
1310.46	0
1310.84	0
1311.21	0
1311.59	0
1311.97	0
1312.35	0
1312.72	0
1313.1	0
1313.48	0
1313.86	0
1314.23	0
1314.61	0
1314.99	0
1315.37	0
1315.74	0
1316.12	0
1316.5	0
1316.87	0
1317.25	0
1317.63	0
1318.01	0
1318.38	0
1318.76	0
1319.14	0
1319.52	0
1319.89	0
1320.27	0
1320.65	0
1321.02	0
1321.4	0
1321.78	0
1322.15	0
1322.53	0
1322.91	0
1323.29	0
1323.66	0
1324.04	0
1324.42	0
1324.79	0
1325.17	0
1325.55	0
1325.92	0
1326.3	0
1326.68	0
1327.05	0
1327.43	0
1327.81	0
1328.18	0
1328.56	0
1328.94	0
1329.31	0
1329.69	0
1330.06	0
1330.44	0
1330.82	0
1331.19	0
1331.57	0
1331.95	0
1332.32	0
1332.7	0
1333.08	0
1333.45	0
1333.83	0
1334.2	0
1334.58	0
1334.96	0
1335.33	0
1335.71	0
1336.08	0
1336.46	0
1336.84	0
1337.21	0
1337.59	0
1337.96	0
1338.34	0
1338.72	0
1339.09	0
1339.47	0
1339.84	0
1340.22	0
1340.6	0
1340.97	0
1341.35	0
1341.72	0
1342.1	0
1342.47	0
1342.85	0
1343.23	0
1343.6	0
1343.98	0
1344.35	0
1344.73	0
1345.1	0
1345.48	0
1345.85	0
1346.23	0
1346.61	0
1346.98	0
1347.36	0
1347.73	0
1348.11	0
1348.48	0
1348.86	0
1349.23	0
1349.61	0
1349.98	0
1350.36	0
1350.73	0
1351.11	0
1351.48	0
1351.86	0
1352.23	0
1352.61	0
1352.98	0
1353.36	0
1353.73	0
1354.11	0
1354.48	0
1354.86	0
1355.23	0
1355.61	0
1355.98	0
1356.36	0
1356.73	0
1357.11	0
1357.48	0
1357.86	0
1358.23	0
1358.61	0
1358.98	0
1359.35	0
1359.73	0
1360.1	0
1360.48	0
1360.85	0
1361.23	0
1361.6	0
1361.98	0
1362.35	0
1362.72	0
1363.1	0
1363.47	0
1363.85	0
1364.22	0
1364.6	0
1364.97	0
1365.34	0
1365.72	0
1366.09	0
1366.47	0
1366.84	0
1367.22	0
1367.59	0
1367.96	0
1368.34	0
1368.71	0
1369.09	0.12
1369.46	-0.76
1369.83	-0.76
1370.21	-0.76
1370.58	-0.76
1370.96	-0.84
1371.33	0.16
1371.7	0.28
1372.08	0.72
1372.45	0.88
1372.82	0.84
1373.2	0.8
1373.57	0.72
1373.95	0.44
1374.32	0.44
1374.69	0.84
1375.07	0.8
1375.44	1.16
1375.81	1.08
1376.19	1.12
1376.56	0.72
1376.93	0.8
1377.31	0.4
1377.68	0.56
1378.05	0.72
1378.43	0.88
1378.8	1.32
1379.17	1.32
1379.55	1.52
1379.92	1.4
1380.29	1.24
1380.67	1.2
1381.04	1.4
1381.41	1
1381.79	0.76
1382.16	0.76
1382.53	0.28
1382.91	-0.76
1383.28	-0.48
1383.65	-0.28
1384.03	-0.28
1384.4	2.88669e-17
1384.77	0.96
1385.14	0.8
1385.52	0.8
1385.89	0.92
1386.26	0.76
1386.64	0.8
1387.01	0.64
1387.38	0.44
1387.75	0.32
1388.13	0.28
1388.5	0.4
1388.87	0.52
1389.25	0.56
1389.62	0.56
1389.99	0.24
1390.36	0.36
1390.74	0.24
1391.11	0.6
1391.48	0.64
1391.85	1
1392.23	0.64
1392.6	0.64
1392.97	0.52
1393.34	0.76
1393.72	1.2
1394.09	1.16
1394.46	1.32
1394.83	1.04
1395.21	1.04
1395.58	0.44
1395.95	0.44
1396.32	0.52
1396.69	0.52
1397.07	0.24
1397.44	0.56
1397.81	1.36
1398.18	1.32
1398.55	1.32
1398.93	1.32
1399.3	1.12
1399.67	0.32
1400.04	0.12
1400.41	0.12
1400.79	0.28
1401.16	0.32
1401.53	0.72
1401.9	0.92
1402.27	1.16
1402.65	1.04
1403.02	0.88
1403.39	0.6
1403.76	-5.55112e-17
1404.13	-0.08
1404.51	-0.12
1404.88	-0.08
1405.25	0.04
1405.62	0.84
1405.99	0.68
1406.36	0.92
1406.74	1.04
1407.11	0.8
1407.48	0.48
1407.85	-0.48
1408.22	-0.72
1408.59	-0.8
1408.96	-0.8
1409.34	-0.84
1409.71	0.12
1410.08	0.2
1410.45	0.36
1410.82	0.36
1411.19	0.4
1411.56	0.44
1411.93	0.72
1412.31	0.6
1412.68	0.72
1413.05	0.68
1413.42	0.68
1413.79	0.6
1414.16	0.6
1414.53	0.68
1414.9	0.68
1415.27	0.96
1415.65	0.76
1416.02	0.72
1416.39	0.52
1416.76	0.48
1417.13	0.16
1417.5	0.8
1417.87	0.76
1418.24	0.76
1418.61	0.76
1418.98	1.04
1419.35	0.32
1419.73	0.44
1420.1	0.44
1420.47	0.68
1420.84	0.44
1421.21	0.52
1421.58	0.36
1421.95	0.76
1422.32	0.64
1422.69	0.84
1423.06	0.76
1423.43	0.76
1423.8	0.56
1424.17	0.44
1424.54	0.68
1424.91	0.68
1425.28	0.76
1425.65	1.24
1426.02	1.6
1426.39	1.16
1426.76	0.64
1427.14	0.56
1427.51	0.04
1427.88	-0.08
1428.25	-0.12
1428.62	0.4
1428.99	0.4
1429.36	0.48
1429.73	0.32
1430.1	0.32
1430.47	0.44
1430.84	0.6
1431.21	0.4
1431.58	0.32
1431.95	0.64
1432.32	0.32
1432.69	0.24
1433.06	0.2
1433.43	0.24
1433.8	0.28
1434.17	0.48
1434.54	0.4
1434.91	0.44
1435.28	0.4
1435.64	0.04
1436.01	-0.48
1436.38	-0.36
1436.75	-0.36
1437.12	-0.24
1437.49	-0.2
1437.86	0.4
1438.23	0.52
1438.6	0.48
1438.97	0.44
1439.34	0.4
1439.71	0.72
1440.08	0.68
1440.45	0.88
1440.82	0.24
1441.19	0.4
1441.56	0.36
1441.93	0.32
1442.3	0.12
1442.67	-0.84
1443.03	-1
1443.4	-1.36
1443.77	-1.52
1444.14	-1.44
1444.51	0.4
1444.88	0.76
1445.25	0.76
1445.62	0.76
1445.99	0.68
1446.36	0.44
1446.73	0.4
1447.09	0.56
1447.46	0.64
1447.83	0.64
1448.2	0.56
1448.57	0.48
1448.94	0.32
1449.31	0.36
1449.68	0.36
1450.05	0.44
1450.41	0.2
1450.78	0
1451.15	-0.08
1451.52	-0.08
1451.89	-0.16
1452.26	0.08
1452.63	0.32
1453	0.36
1453.36	0.48
1453.73	0.48
1454.1	0.36
1454.47	0.44
1454.84	0.52
1455.21	0.8
1455.57	0.44
1455.94	0.48
1456.31	0.6
1456.68	0.44
1457.05	0.04
1457.42	0.52
1457.78	0.44
1458.15	0.2
1458.52	0.36
1458.89	0.6
1459.26	0.48
1459.63	0.4
1459.99	0.48
1460.36	0.32
1460.73	0.68
1461.1	0.88
1461.47	0.88
1461.83	0.8
1462.2	1
1462.57	0.44
1462.94	0.32
1463.31	0.44
1463.67	0.6
1464.04	0.2
1464.41	0.16
1464.78	-0.52
1465.15	-0.64
1465.51	-0.76
1465.88	-0.56
1466.25	-0.52
1466.62	1.12
1466.98	1.12
1467.35	1.08
1467.72	1.24
1468.09	1.28
1468.46	0.4
1468.82	0.44
1469.19	0.44
1469.56	0.48
1469.93	0.64
1470.29	0.48
1470.66	0.44
1471.03	0.64
1471.4	0.56
1471.76	0.32
1472.13	0.32
1472.5	0.52
1472.86	0.44
1473.23	0.6
1473.6	0.96
1473.97	1
1474.33	0.88
1474.7	0.84
1475.07	0.64
1475.44	0.28
1475.8	0.12
1476.17	0.08
1476.54	1.74861e-17
1476.9	2.10945e-17
1477.27	0.16
1477.64	0.28
1478	0.24
1478.37	0.44
1478.74	0.36
1479.11	0.2
1479.47	0.2
1479.84	0.44
1480.21	0.24
1480.57	0.32
1480.94	0.44
1481.31	0.64
1481.67	0.52
1482.04	0.6
1482.41	0.52
1482.77	0.84
1483.14	0.64
1483.51	0.6
1483.87	0.52
1484.24	0.6
1484.61	0.32
1484.97	0.68
1485.34	1.04
1485.71	0.08
1486.07	5.77338e-17
1486.44	0.4
1486.81	0.2
1487.17	0.04
1487.54	1
1487.9	1
1488.27	0.44
1488.64	0.4
1489	0.12
1489.37	0.12
1489.74	0.12
1490.1	0.24
1490.47	0.12
1490.83	0.28
1491.2	0.28
1491.57	0.28
1491.93	0.24
1492.3	0.28
1492.66	0.68
1493.03	0.76
1493.4	1.04
1493.76	1.32
1494.13	1.28
1494.49	0.72
1494.86	0.64
1495.23	0.6
1495.59	0.28
1495.96	-0.48
1496.32	-0.48
1496.69	-0.4
1497.06	-0.4
1497.42	-1.24
1497.79	-0.48
1498.15	-0.12
1498.52	0.08
1498.88	0.28
1499.25	1.4
1499.62	1.12
1499.98	0.76
1500.35	0.52
1500.71	0.16
1501.08	-0.16
1501.44	0.2
1501.81	0.2
1502.17	0.32
1502.54	0.6
1502.9	0.76
1503.27	0.68
1503.64	0.8
1504	0.76
1504.37	0.4
1504.73	0.32
1505.1	0.64
1505.46	0.56
1505.83	0.72
1506.19	0.8
1506.56	0.96
1506.92	0.68
1507.29	0.64
1507.65	0.64
1508.02	0.72
1508.38	0.8
1508.75	1
1509.11	1.12
1509.48	1.08
1509.84	0.96
1510.21	0.68
1510.57	0.52
1510.94	0.44
1511.3	0.36
1511.67	0.4
1512.03	0.44
1512.4	0.8
1512.76	0.76
1513.13	-0.4
1513.49	-0.68
1513.85	-0.52
1514.22	-0.96
1514.58	-0.72
1514.95	0.48
1515.31	1.12
1515.68	1.04
1516.04	1.28
1516.41	1.08
1516.77	1.16
1517.14	0.92
1517.5	0.88
1517.86	0.76
1518.23	0.72
1518.59	0.48
1518.96	0.28
1519.32	0.24
1519.69	0.12
1520.05	0.4
1520.41	0.56
1520.78	0.56
1521.14	0.48
1521.51	0.6
1521.87	0.48
1522.24	0.28
1522.6	0.52
1522.96	0.52
1523.33	0.84
1523.69	0.88
1524.06	1.08
1524.42	0.84
1524.78	1.08
1525.15	0.68
1525.51	0.64
1525.88	0.72
1526.24	0.76
1526.6	0.52
1526.97	0.6
1527.33	0.48
1527.69	0.28
1528.06	0.24
1528.42	0.28
1528.79	0.16
1529.15	-0.6
1529.51	-0.4
1529.88	-0.36
1530.24	-0.24
1530.6	-0.24
1530.97	0.48
1531.33	0.2
1531.69	0.2
1532.06	0.04
1532.42	0.04
1532.78	0.04
1533.15	0.2
1533.51	0.28
1533.87	0.28
1534.24	0.64
1534.6	0.64
1534.96	0.48
1535.33	0.36
1535.69	0.44
1536.05	0.08
1536.42	0.08
1536.78	0.16
1537.14	0.16
1537.51	0.12
1537.87	0.12
1538.23	0.44
1538.6	0.48
1538.96	0.64
1539.32	0.76
1539.68	0.76
1540.05	0.44
1540.41	0.4
1540.77	0.44
1541.14	0.4
1541.5	0.44
1541.86	0.92
1542.23	0.92
1542.59	0.84
1542.95	0.8
1543.31	0.84
1543.68	0.52
1544.04	0.56
1544.4	0.68
1544.76	0.8
1545.13	0.8
1545.49	0.96
1545.85	1.04
1546.21	0.84
1546.58	0.72
1546.94	1.04
1547.3	0.84
1547.66	1.36
1548.03	1.6
1548.39	1.76
1548.75	1.4
1549.11	1.28
1549.48	0.68
1549.84	0.44
1550.2	0.4
1550.56	0.56
1550.93	0.56
1551.29	0.6
1551.65	0.92
1552.01	0.84
1552.37	0.64
1552.74	0.8
1553.1	0.64
1553.46	0.44
1553.82	0.4
1554.18	1
1554.55	0.88
1554.91	1.12
1555.27	1.28
1555.63	1.28
1555.99	1
1556.36	1.2
1556.72	-0.64
1557.08	-0.88
1557.44	-0.6
1557.8	-0.68
1558.17	-0.56
1558.53	1.08
1558.89	1.12
1559.25	0.76
1559.61	0.56
1559.97	0.2
1560.34	0.24
1560.7	0.12
1561.06	0.12
1561.42	0.08
1561.78	0.08
1562.14	-0.28
1562.5	-0.16
1562.87	-0.12
1563.23	0.24
1563.59	0.24
1563.95	0.92
1564.31	1
1564.67	0.96
1565.03	0.6
1565.4	0.68
1565.76	0.48
1566.12	0.6
1566.48	0.72
1566.84	0.88
1567.2	0.92
1567.56	0.72
1567.92	0.4
1568.29	0.28
1568.65	0.28
1569.01	0.16
1569.37	-0.24
1569.73	-0.08
1570.09	0.44
1570.45	0.52
1570.81	0.52
1571.17	1.08
1571.53	1.24
1571.89	0.88
1572.26	0.84
1572.62	1.08
1572.98	1.08
1573.34	0.76
1573.7	0.6
1574.06	0.48
1574.42	0.28
1574.78	-0.08
1575.14	0.04
1575.5	0.04
1575.86	-0.64
1576.22	-0.68
1576.58	-0.4
1576.94	-0.32
1577.3	-0.28
1577.67	0.32
1578.03	0.36
1578.39	0.4
1578.75	0.4
1579.11	0.36
1579.47	0.48
1579.83	0.48
1580.19	0.4
1580.55	0.2
1580.91	0.4
1581.27	0.32
1581.63	0.6
1581.99	0.72
1582.35	0.8
1582.71	0.76
1583.07	1.28
1583.43	1.32
1583.79	1.2
1584.15	1.28
1584.51	1.44
1584.87	1.16
1585.23	0.96
1585.59	1
1585.95	1
1586.31	0.88
1586.67	1
1587.03	0.84
1587.39	1.36
1587.75	1.64
1588.11	1.44
1588.47	1.44
1588.83	1.44
1589.19	0.96
1589.55	0.52
1589.91	0.72
1590.27	0.32
1590.63	0.52
1590.99	0.56
1591.35	0.72
1591.71	0.52
1592.07	0.76
1592.42	0.56
1592.78	0.6
1593.14	0.72
1593.5	0.72
1593.86	0.6
1594.22	0.76
1594.58	0.72
1594.94	0.48
1595.3	0.6
1595.66	0.96
1596.02	0.84
1596.38	0.76
1596.74	0.72
1597.1	0.6
1597.46	0.12
1597.81	0.2
1598.17	0.16
1598.53	0.16
1598.89	0.16
1599.25	0.16
1599.61	0.08
1599.97	0.32
1600.33	0.36
1600.69	0.44
1601.05	0.52
1601.4	0.6
1601.76	-0.08
1602.12	6.66107e-18
1602.48	-0.04
1602.84	0.08
1603.2	-3.33053e-18
1603.56	0.6
1603.92	0.56
1604.28	0.56
1604.63	0.64
1604.99	0.6
1605.35	0.4
1605.71	0.32
1606.07	0.32
1606.43	0.08
1606.79	0.08
1607.14	0.68
1607.5	0.84
1607.86	0.96
1608.22	0.92
1608.58	1
1608.94	0.64
1609.29	0.48
1609.65	0.12
1610.01	0.4
1610.37	0.44
1610.73	0.52
1611.09	0.52
1611.44	0.92
1611.8	0.76
1612.16	0.76
1612.52	0.44
1612.88	0.68
1613.24	0.6
1613.59	0.92
1613.95	1.72
1614.31	1.76
1614.67	1.52
1615.03	1.56
1615.38	1.16
1615.74	0.24
1616.1	0.24
1616.46	0.24
1616.82	0.08
1617.17	0.12
1617.53	0.12
1617.89	0.16
1618.25	0.72
1618.6	0.76
1618.96	0.68
1619.32	1.08
1619.68	1.16
1620.04	0.6
1620.39	0.56
1620.75	0.68
1621.11	0.32
1621.47	0.16
1621.82	0.36
1622.18	0.56
1622.54	0.44
1622.9	0.92
1623.25	5.99564e-17
1623.61	-0.2
1623.97	0.04
1624.33	0.2
1624.68	-0.52
1625.04	0.44
1625.4	0.52
1625.75	-0.12
1626.11	-0.12
1626.47	0.36
1626.83	0.32
1627.18	0.24
1627.54	0.44
1627.9	0.64
1628.26	0.56
1628.61	0.84
1628.97	0.92
1629.33	0.92
1629.68	0.56
1630.04	0.56
1630.4	-0.16
1630.75	-4.2189e-17
1631.11	-4.2189e-17
1631.47	-0.2
1631.83	-0.4
1632.18	0.16
1632.54	-0.04
1632.9	-0.04
1633.25	0.4
1633.61	0.48
1633.97	0.4
1634.32	0.84
1634.68	1.16
1635.04	0.92
1635.39	0.84
1635.75	1.08
1636.11	0.6
1636.46	0.44
1636.82	0.92
1637.18	1.04
1637.53	0.8
1637.89	1.04
1638.25	1.24
1638.6	0.76
1638.96	0.68
1639.31	0.84
1639.67	0.76
1640.03	0.4
1640.38	0.68
1640.74	0.88
1641.1	0.68
1641.45	0.88
1641.81	1.12
1642.16	0.84
1642.52	0.6
1642.88	0.6
1643.23	-0.24
1643.59	-0.32
1643.95	-0.16
1644.3	-0.04
1644.66	-0.04
1645.01	0.48
1645.37	0.44
1645.73	0.36
1646.08	0.24
1646.44	0.24
1646.79	-0.16
1647.15	-0.04
1647.51	0.24
1647.86	0.24
1648.22	0.36
1648.57	0.04
1648.93	0.48
1649.28	0.12
1649.64	0.32
1650	0.24
1650.35	1.04
1650.71	0.36
1651.06	0.36
1651.42	0.28
1651.77	0.04
1652.13	-0.08
1652.48	0.04
1652.84	0.32
1653.2	0.2
1653.55	0.4
1653.91	0.6
1654.26	0.76
1654.62	0.48
1654.97	0.48
1655.33	0.64
1655.68	0.56
1656.04	0.36
1656.39	0.48
1656.75	0.52
1657.1	0.44
1657.46	0.52
1657.81	0.48
1658.17	0.36
1658.52	0.48
1658.88	0.4
1659.23	0.28
1659.59	0.32
1659.94	0.36
1660.3	0.44
1660.65	0.6
1661.01	0.6
1661.36	0.68
1661.72	0.84
1662.07	0.6
1662.43	0.44
1662.78	0.48
1663.14	0.44
1663.49	0.32
1663.85	0.48
1664.2	0.56
1664.56	0.72
1664.91	-0.92
1665.27	-1
1665.62	-1.08
1665.98	-1.16
1666.33	-1.44
1666.69	0.24
1667.04	0.72
1667.39	0.84
1667.75	1.08
1668.1	1.08
1668.46	1.12
1668.81	1.04
1669.17	1.04
1669.52	0.8
1669.88	0.92
1670.23	0.8
1670.58	1.2
1670.94	1.16
1671.29	1.16
1671.65	1.28
1672	1.2
1672.36	0.4
1672.71	0.52
1673.06	0.76
1673.42	0.32
1673.77	0.32
1674.13	0.36
1674.48	0.6
1674.83	0.4
1675.19	1.08
1675.54	1.4
1675.9	1.48
1676.25	1.24
1676.6	1.32
1676.96	0.88
1677.31	0.6
1677.67	0.8
1678.02	0.96
1678.37	1.04
1678.73	1.12
1679.08	1.28
1679.43	0.96
1679.79	0.76
1680.14	0.56
1680.5	0.2
1680.85	0.48
1681.2	0.48
1681.56	0.32
1681.91	0.36
1682.26	1.24
1682.62	1.48
1682.97	1.68
1683.32	1.64
1683.68	2.2
1684.03	1.84
1684.38	1.36
1684.74	1.28
1685.09	1.4
1685.44	0.96
1685.8	1
1686.15	1.04
1686.5	0.92
1686.86	0.76
1687.21	0.64
1687.56	0.32
1687.92	0.24
1688.27	0.52
1688.62	0.8
1688.98	0.76
1689.33	0.92
1689.68	1.48
1690.03	1.72
1690.39	1.6
1690.74	1.88
1691.09	1.8
1691.45	1
1691.8	0.64
1692.15	0.52
1692.5	0.4
1692.86	0.52
1693.21	0.92
1693.56	0.96
1693.92	0.96
1694.27	0.24
1694.62	0.16
1694.97	-0.2
1695.33	0
1695.68	0.16
1696.03	0.84
1696.38	0.72
1696.74	1.76
1697.09	1.2
1697.44	1.16
1697.79	1.08
1698.15	1.16
1698.5	0.28
1698.85	0.68
1699.2	0.56
1699.56	0.76
1699.91	0.84
1700.26	0.92
1700.61	0.72
1700.97	0.72
1701.32	0.64
1701.67	0.76
1702.02	0.6
1702.37	0.64
1702.73	1.04
1703.08	0.96
1703.43	0.96
1703.78	1.28
1704.13	1.2
1704.49	0.92
1704.84	1.32
1705.19	1.2
1705.54	0.8
1705.89	1.2
1706.25	1.24
1706.6	1.12
1706.95	1.24
1707.3	1.32
1707.65	1.16
1708.01	1.44
1708.36	1.88
1708.71	1.96
1709.06	2.08
1709.41	1.84
1709.76	1.6
1710.12	0.8
1710.47	0.44
1710.82	0.56
1711.17	0.84
1711.52	0.72
1711.87	1
1712.23	1.52
1712.58	1.48
1712.93	1.76
1713.28	1.76
1713.63	1.6
1713.98	1.56
1714.33	1.32
1714.69	1.12
1715.04	1.56
1715.39	1.64
1715.74	1.32
1716.09	1.48
1716.44	1.72
1716.79	1.4
1717.14	1.28
1717.5	1.36
1717.85	1.52
1718.2	0.92
1718.55	1.2
1718.9	1.88
1719.25	1.8
1719.6	1.6
1719.95	1.92
1720.3	1.64
1720.65	1.12
1721.01	1.8
1721.36	1.68
1721.71	1.36
1722.06	1.2
1722.41	1
1722.76	0.28
1723.11	0.52
1723.46	0.52
1723.81	0.48
1724.16	0.72
1724.51	1.6
1724.86	1.44
1725.21	1.44
1725.56	1.52
1725.92	1.48
1726.27	0.64
1726.62	0.56
1726.97	0.84
1727.32	0.72
1727.67	0.48
1728.02	0.6
1728.37	0.56
1728.72	0.44
1729.07	0.6
1729.42	0.88
1729.77	0.84
1730.12	0.84
1730.47	0.68
1730.82	0.6
1731.17	0.32
1731.52	0.12
1731.87	0.24
1732.22	0.24
1732.57	0.6
1732.92	0.76
1733.27	1.08
1733.62	1.4
1733.97	1.44
1734.32	1.4
1734.67	1.52
1735.02	0.88
1735.37	0.48
1735.72	0.6
1736.07	0.32
1736.42	0.8
1736.77	1.08
1737.12	1.16
1737.47	1.16
1737.82	1.32
1738.17	0.72
1738.52	0.92
1738.87	0.8
1739.22	0.68
1739.57	0.52
1739.92	0.76
1740.27	0.56
1740.62	0.56
1740.97	0.52
1741.32	0.52
1741.67	0.12
1742.02	0.4
1742.37	0.8
1742.72	1
1743.06	1.12
1743.41	1.72
1743.76	1.68
1744.11	0.36
1744.46	0.16
1744.81	0.04
1745.16	-0.2
1745.51	-0.28
1745.86	0.64
1746.21	0.92
1746.56	1.52
1746.91	1.6
1747.26	1.72
1747.6	2.56
1747.95	2.4
1748.3	2.04
1748.65	2.16
1749	2.72
1749.35	1.96
1749.7	2.72
1750.05	2.52
1750.4	2.24
1750.75	1.52
1751.09	1.64
1751.44	1
1751.79	0.64
1752.14	0.84
1752.49	1
1752.84	1
1753.19	1.44
1753.54	2.4
1753.88	2.36
1754.23	2.36
1754.58	2.76
1754.93	2.76
1755.28	2.68
1755.63	2.44
1755.98	2.52
1756.32	2.56
1756.67	3.16
1757.02	3.72
1757.37	3.68
1757.72	4.12
1758.07	4.32
1758.42	3.76
1758.76	4.48
1759.11	4.84
1759.46	4.76
1759.81	4.88
1760.16	5.76
1760.5	5.44
1760.85	5
1761.2	4.76
1761.55	4.48
1761.9	3.44
1762.25	3.16
1762.59	5.04
1762.94	5.44
1763.29	5.88
1763.64	7.76
1763.99	7.28
1764.33	6.52
1764.68	6.52
1765.03	6.2
1765.38	4.84
1765.73	5.4
1766.07	5.56
1766.42	5.76
1766.77	7.2
1767.12	7.88
1767.46	7.6
1767.81	7.76
1768.16	8.2
1768.51	7.12
1768.85	7.44
1769.2	7.96
1769.55	7.8
1769.9	7.64
1770.25	7.52
1770.59	6.92
1770.94	7.4
1771.29	8.24
1771.64	7.84
1771.98	8.6
1772.33	8.6
1772.68	8.28
1773.02	8.04
1773.37	9
1773.72	9.36
1774.07	9.8
1774.41	8.44
1774.76	8.76
1775.11	7.92
1775.46	6.96
1775.8	6
1776.15	6.96
1776.5	5.96
1776.84	5.84
1777.19	6.04
1777.54	6.64
1777.89	7.28
1778.23	7.32
1778.58	7.08
1778.93	7.08
1779.27	7.44
1779.62	7.44
1779.97	7.6
1780.31	8.32
1780.66	8.84
1781.01	8.28
1781.35	6.56
1781.7	6.44
1782.05	5.64
1782.39	4
1782.74	3.76
1783.09	4
1783.43	2.84
1783.78	4.4
1784.13	5.4
1784.47	4.64
1784.82	6.08
1785.17	6.76
1785.51	4.96
1785.86	4.04
1786.21	4.12
1786.55	2.52
1786.9	2.8
1787.25	2.84
1787.59	3.56
1787.94	3.4
1788.29	3.36
1788.63	3.08
1788.98	3.36
1789.32	3.36
1789.67	3.48
1790.02	3.2
1790.36	2.96
1790.71	2.72
1791.06	2.44
1791.4	2.8
1791.75	3.44
1792.09	3.48
1792.44	2.6
1792.79	0.2
1793.13	-0.44
1793.48	-1.12
1793.82	-1.6
1794.17	-2.96
1794.52	-0.6
1794.86	-0.12
1795.21	-2.22045e-16
1795.55	0.24
1795.9	1.64
1796.24	1.08
1796.59	0.48
1796.94	0.52
1797.28	0.08
1797.63	0.72
1797.97	0.92
1798.32	1.28
1798.66	1.92
1799.01	2.28
1799.36	2.48
1799.7	2.36
1800.05	2.56
1800.39	1.88
1800.74	1.88
1801.08	1.44
1801.43	1.64
1801.77	1.32
1802.12	1.2
1802.46	1.04
1802.81	1.08
1803.15	0.64
1803.5	0.68
1803.85	1.12
1804.19	0.92
1804.54	1.16
1804.88	1.72
1805.23	1.92
1805.57	1.84
1805.92	2
1806.26	2.16
1806.61	1.8
1806.95	1.6
1807.3	1.84
1807.64	2.56
1807.99	2.24
1808.33	2.12
1808.68	2.04
1809.02	2.6
1809.37	3.28
1809.71	3.8
1810.06	3.84
1810.4	4.24
1810.75	3.48
1811.09	4.48
1811.43	5.8
1811.78	7.08
1812.12	7.12
1812.47	7
1812.81	5.32
1813.16	3.84
1813.5	3.36
1813.85	3.6
1814.19	4
1814.54	3.36
1814.88	4.04
1815.23	3.24
1815.57	2.6
1815.91	2.32
1816.26	3.2
1816.6	4.64
1816.95	5.28
1817.29	6.28
1817.64	8.08
1817.98	7.84
1818.32	7.84
1818.67	9.04
1819.01	8.8
1819.36	7.44
1819.7	6.72
1820.05	5.12
1820.39	4.84
1820.73	5.04
1821.08	5.48
1821.42	6.24
1821.77	6.2
1822.11	5.32
1822.45	4.12
1822.8	4
1823.14	4.4
1823.49	5.48
1823.83	8.16
1824.17	10.4
1824.52	11.76
1824.86	11.64
1825.2	10.68
1825.55	7.6
1825.89	6.84
1826.24	6.04
1826.58	7.56
1826.92	9.24
1827.27	10.12
1827.61	10.52
1827.95	10.6
1828.3	8.6
1828.64	6.84
1828.98	6.64
1829.33	6.12
1829.67	8.96
1830.02	11.96
1830.36	13.88
1830.7	16.84
1831.05	18.76
1831.39	16.24
1831.73	15.56
1832.08	15.6
1832.42	12.96
1832.76	12.12
1833.1	12.12
1833.45	10.68
1833.79	8.48
1834.13	8.96
1834.48	7.84
1834.82	7.88
1835.16	8.68
1835.51	9.96
1835.85	8.92
1836.19	8.64
1836.54	7.56
1836.88	6.72
1837.22	5.36
1837.56	5.92
1837.91	8.08
1838.25	10.76
1838.59	12.68
1838.94	14.44
1839.28	14.76
1839.62	14
1839.96	11.32
1840.31	9.52
1840.65	8.68
1840.99	8.88
1841.34	12.64
1841.68	16.12
1842.02	17.52
1842.36	18.88
1842.71	18.04
1843.05	12.44
1843.39	11.88
1843.73	13.96
1844.08	15.52
1844.42	19.44
1844.76	21.4
1845.1	19.76
1845.45	16.48
1845.79	15.96
1846.13	13.52
1846.47	14.04
1846.81	14.48
1847.16	15.12
1847.5	15.48
1847.84	16.8
1848.18	18.2
1848.53	18.76
1848.87	17.72
1849.21	14.96
1849.55	13.32
1849.89	11.52
1850.24	11.6
1850.58	13.24
1850.92	14.88
1851.26	15.24
1851.6	16.68
1851.95	17.16
1852.29	16.2
1852.63	14.72
1852.97	13.96
1853.31	11.28
1853.66	8.96
1854	9.4
1854.34	8.48
1854.68	9.24
1855.02	10.68
1855.36	12.56
1855.71	11.92
1856.05	12.92
1856.39	12.32
1856.73	11.76
1857.07	8.76
1857.41	8.68
1857.76	9.04
1858.1	8.44
1858.44	7.92
1858.78	8.96
1859.12	8.04
1859.46	6.32
1859.8	6.56
1860.15	6.16
1860.49	6.16
1860.83	7.76
1861.17	9.52
1861.51	9.04
1861.85	9.04
1862.19	8.88
1862.53	6.76
1862.88	6.6
1863.22	6.76
1863.56	6.64
1863.9	6.52
1864.24	7.76
1864.58	7.2
1864.92	7.24
1865.26	7.68
1865.6	8.04
1865.94	7
1866.29	6.6
1866.63	7.4
1866.97	6.56
1867.31	5.84
1867.65	6.48
1867.99	6.72
1868.33	5.04
1868.67	4.88
1869.01	5.36
1869.35	5.12
1869.69	5.12
1870.03	5.72
1870.37	7.28
1870.72	7.24
1871.06	7
1871.4	7.08
1871.74	7.32
1872.08	6.2
1872.42	5.36
1872.76	5.8
1873.1	5.96
1873.44	5.32
1873.78	4.72
1874.12	5.2
1874.46	4.88
1874.8	4.48
1875.14	4.88
1875.48	5.8
1875.82	5.44
1876.16	5.6
1876.5	6.6
1876.84	6.64
1877.18	6.36
1877.52	6.36
1877.86	6.12
1878.2	5.64
1878.54	4.68
1878.88	4.48
1879.22	5.24
1879.56	4.88
1879.9	3.72
1880.24	4.48
1880.58	4.36
1880.92	3.48
1881.26	3.76
1881.6	5.48
1881.94	6.24
1882.28	6.68
1882.62	7.48
1882.96	8.2
1883.3	7.52
1883.64	6.52
1883.98	6.28
1884.32	6.32
1884.66	5.68
1885	5.12
1885.34	5.16
1885.68	5.36
1886.02	4.56
1886.36	5.48
1886.7	6.52
1887.04	6.72
1887.38	6.6
1887.72	6.88
1888.06	5.96
1888.39	5.56
1888.73	5.92
1889.07	6.24
1889.41	6.56
1889.75	6.32
1890.09	5.76
1890.43	6.56
1890.77	5.8
1891.11	6.4
1891.45	6.64
1891.79	7.64
1892.13	7.04
1892.47	7.76
1892.8	6.76
1893.14	7.28
1893.48	5.8
1893.82	6
1894.16	7.24
1894.5	8.88
1894.84	8.72
1895.18	10.12
1895.52	9.6
1895.86	7.96
1896.19	6.76
1896.53	7.6
1896.87	6.84
1897.21	7.08
1897.55	7.6
1897.89	8.4
1898.23	7.32
1898.57	8.28
1898.9	8.8
1899.24	8.96
1899.58	9.32
1899.92	10.36
1900.26	9.68
1900.6	8.88
1900.94	8.44
1901.27	7.72
1901.61	7.4
1901.95	8.56
1902.29	9.04
1902.63	9.88
1902.97	10.04
1903.3	9.24
1903.64	8.4
1903.98	8.72
1904.32	8.36
1904.66	9.08
1905	10.12
1905.33	9.36
1905.67	9.68
1906.01	9.8
1906.35	8.68
1906.69	8.96
1907.02	8.32
1907.36	9.08
1907.7	8.8
1908.04	8.68
1908.38	8.68
1908.71	10.28
1909.05	8.48
1909.39	8.12
1909.73	7.64
1910.07	7.96
1910.4	7.56
1910.74	8.12
1911.08	8.44
1911.42	9.08
1911.76	9.12
1912.09	8.84
1912.43	8.4
1912.77	8.6
1913.11	9.52
1913.44	8.4
1913.78	8.6
1914.12	9.16
1914.46	9.04
1914.79	8.52
1915.13	8.52
1915.47	8.08
1915.81	7.56
1916.14	7.36
1916.48	7.08
1916.82	7.32
1917.16	5.92
1917.49	5.76
1917.83	6.4
1918.17	6.44
1918.5	7
1918.84	8.44
1919.18	8.28
1919.52	7.76
1919.85	8.28
1920.19	8.12
1920.53	7.96
1920.87	8.84
1921.2	8.2
1921.54	6.76
1921.88	6.96
1922.21	6.36
1922.55	5.32
1922.89	6.28
1923.22	7.28
1923.56	5.36
1923.9	5.88
1924.23	6.6
1924.57	5.4
1924.91	5.2
1925.25	5.64
1925.58	5.84
1925.92	5
1926.26	5.76
1926.59	5
1926.93	5.08
1927.27	4.52
1927.6	4.92
1927.94	4.4
1928.28	4.76
1928.61	4.76
1928.95	4.92
1929.29	5.64
1929.62	5.56
1929.96	6.52
1930.29	6.2
1930.63	6.6
1930.97	5.68
1931.3	6.72
1931.64	6.12
1931.98	6.68
1932.31	6.16
1932.65	6.16
1932.99	4.84
1933.32	4.72
1933.66	4.12
1933.99	4.4
1934.33	4.32
1934.67	5.12
1935	4.52
1935.34	4.96
1935.67	5.4
1936.01	5.24
1936.35	4.68
1936.68	4.2
1937.02	4.24
1937.35	4.24
1937.69	4.4
1938.03	4.4
1938.36	3.4
1938.7	3.12
1939.03	2.56
1939.37	2.44
1939.7	2.44
1940.04	3.48
1940.38	4
1940.71	4.04
1941.05	3.64
1941.38	3.52
1941.72	3.68
1942.05	3.36
1942.39	3.24
1942.73	3.04
1943.06	2.56
1943.4	2.28
1943.73	1.84
1944.07	1.4
1944.4	1.28
1944.74	1.52
1945.07	2.16
1945.41	2.16
1945.74	2.28
1946.08	3.32
1946.42	3.6
1946.75	3.32
1947.09	3.72
1947.42	3.52
1947.76	3.08
1948.09	2.64
1948.43	2.56
1948.76	2.4
1949.1	2.48
1949.43	1.8
1949.77	2.04
1950.1	1.92
1950.44	1.32
1950.77	1.2
1951.11	2.36
1951.44	2.2
1951.78	1.84
1952.11	2.2
1952.45	2.64
1952.78	2.16
1953.12	3
1953.45	3.64
1953.79	3.56
1954.12	3.28
1954.46	2.96
1954.79	2.28
1955.12	1.92
1955.46	1.8
1955.79	2.2
1956.13	2
1956.46	1.96
1956.8	1.44
1957.13	1.48
1957.47	1.28
1957.8	1.48
1958.14	1.76
1958.47	2.72
1958.8	3.16
1959.14	3.36
1959.47	3.16
1959.81	3.08
1960.14	2.84
1960.48	2.88
1960.81	2.48
1961.14	3.16
1961.48	2.76
1961.81	2.92
1962.15	2.36
1962.48	2.12
1962.82	1.6
1963.15	1.72
1963.48	1.56
1963.82	1.4
1964.15	1.52
1964.49	1.32
1964.82	1.2
1965.15	1.12
1965.49	1.04
1965.82	0.96
1966.16	1.4
1966.49	1.64
1966.82	1.84
1967.16	1.96
1967.49	2.44
1967.83	2
1968.16	1.68
1968.49	1.24
1968.83	1.28
1969.16	0.96
1969.49	1.12
1969.83	0.92
1970.16	1
1970.49	1.04
1970.83	1.04
1971.16	1
1971.5	0.64
1971.83	0.76
1972.16	1.2
1972.5	1.2
1972.83	1.44
1973.16	2.08
1973.5	2.04
1973.83	1.72
1974.16	1.76
1974.5	1.28
1974.83	1.08
1975.16	1.04
1975.5	0.88
1975.83	0.8
1976.16	0.88
1976.49	0.92
1976.83	0.72
1977.16	0.72
1977.49	0.64
1977.83	0.84
1978.16	0.96
1978.49	1.04
1978.83	1.08
1979.16	1.48
1979.49	1.2
1979.83	1.92
1980.16	1.84
1980.49	1.64
1980.82	1.2
1981.16	1.64
1981.49	0.8
1981.82	0.6
1982.15	0.84
1982.49	0.68
1982.82	0.24
1983.15	0.36
1983.49	0.48
1983.82	0.36
1984.15	0.84
1984.48	0.84
1984.82	0.84
1985.15	1
1985.48	0.88
1985.81	0.44
1986.15	0.88
1986.48	0.88
1986.81	0.8
1987.14	0.92
1987.48	1.04
1987.81	0.6
1988.14	0.36
1988.47	0.48
1988.81	0.48
1989.14	0.72
1989.47	1.12
1989.8	1.12
1990.13	0.92
1990.47	0.8
1990.8	0.44
1991.13	0.24
1991.46	0.24
1991.79	-0.32
1992.13	-1.12
1992.46	-0.96
1992.79	-0.92
1993.12	-0.08
1993.45	0.04
1993.79	1.16
1994.12	1.24
1994.45	1.28
1994.78	0.56
1995.11	1.08
1995.45	1.2
1995.78	1.16
1996.11	0.92
1996.44	0.92
1996.77	1.08
1997.1	0.64
1997.44	0.4
1997.77	0.52
1998.1	0.4
1998.43	0.4
1998.76	0.64
1999.09	0.64
1999.43	-0.64
1999.76	-0.44
2000.09	-0.44
2000.42	-0.56
2000.75	-1.32
2001.08	0.16
2001.41	0.36
2001.75	0.68
2002.08	1.32
2002.41	2.16
2002.74	1.84
2003.07	1.8
2003.4	1.24
2003.73	0.92
2004.06	1.52
2004.4	1.8
2004.73	1.44
2005.06	1.4
2005.39	1.8
2005.72	1.16
2006.05	1.36
2006.38	1.64
2006.71	1.8
2007.04	1.32
2007.37	1.4
2007.71	1.24
2008.04	1.12
2008.37	1.56
2008.7	1.92
2009.03	2.36
2009.36	3
2009.69	3.24
2010.02	3.12
2010.35	2.4
2010.68	2.72
2011.01	2.36
2011.34	2.16
2011.67	2.68
2012.01	3.08
2012.34	2.56
2012.67	2.92
2013	3.6
2013.33	3.16
2013.66	2.96
2013.99	3.4
2014.32	3.2
2014.65	3.8
2014.98	3.52
2015.31	3.52
2015.64	3.96
2015.97	4.4
2016.3	4
2016.63	4
2016.96	4.28
2017.29	2.84
2017.62	2.2
2017.95	1.48
2018.28	1.72
2018.61	2.56
2018.94	2.96
2019.27	3.52
2019.6	3.68
2019.93	3.48
2020.26	2.68
2020.59	3
2020.92	2.44
2021.25	2.4
2021.58	2.8
2021.91	2.64
2022.24	2.64
2022.57	3.12
2022.9	3.52
2023.23	4.08
2023.56	4.32
2023.89	4.28
2024.22	3.8
2024.55	3.28
2024.88	3.52
2025.21	3.04
2025.54	2.76
2025.87	2.84
2026.2	2.88
2026.53	1.48
2026.86	2.12
2027.19	2.76
2027.52	3.2
2027.85	3.76
2028.18	3.68
2028.51	4.04
2028.84	3.44
2029.16	3
2029.49	2.36
2029.82	2.64
2030.15	1.8
2030.48	1.52
2030.81	1.08
2031.14	1.44
2031.47	1.72
2031.8	2.4
2032.13	2.84
2032.46	3.32
2032.79	3.04
2033.12	2.6
2033.44	2.52
2033.77	2.88
2034.1	2.36
2034.43	2.36
2034.76	2.36
2035.09	1.56
2035.42	1.12
2035.75	1.28
2036.08	1.32
2036.41	1.36
2036.73	1.72
2037.06	1.52
2037.39	1.32
2037.72	1.04
2038.05	0.96
2038.38	0.8
2038.71	1.24
2039.04	0.2
2039.36	0.04
2039.69	0.52
2040.02	-0.04
2040.35	-0.6
2040.68	0.92
2041.01	1.12
2041.34	0.56
2041.66	1.16
2041.99	2.48
2042.32	1.84
2042.65	1.64
2042.98	1.88
2043.31	1.56
2043.63	0.68
2043.96	1
2044.29	1.8
2044.62	1.6
2044.95	1.68
2045.28	1.28
2045.6	0.96
2045.93	0.68
2046.26	0.72
2046.59	1
2046.92	1.08
2047.24	1.08
2047.57	0.8
2047.9	0.76
2048.23	0.92
2048.56	0.88
2048.88	0.88
2049.21	0.84
2049.54	0.96
2049.87	0.6
2050.2	0.52
2050.52	0.56
2050.85	0.36
2051.18	0.28
2051.51	0.4
2051.83	0.88
2052.16	1.52
2052.49	1.56
2052.82	1.52
2053.15	1.04
2053.47	1.32
2053.8	0.64
2054.13	0.84
2054.46	1.08
2054.78	1.28
2055.11	0.52
2055.44	0.48
2055.77	0.24
2056.09	-0.04
2056.42	0.04
2056.75	0.2
2057.08	0.24
2057.4	0.52
2057.73	0.64
2058.06	0.56
2058.38	0.4
2058.71	0.4
2059.04	0.12
2059.37	0.48
2059.69	0.6
2060.02	0.6
2060.35	0.96
2060.67	1.32
2061	0.84
2061.33	0.52
2061.66	0.8
2061.98	0.72
2062.31	0.44
2062.64	0.44
2062.96	0.64
2063.29	0.36
2063.62	0.72
2063.94	0.64
2064.27	1.32
2064.6	0.52
2064.92	0.96
2065.25	0.44
2065.58	0.76
2065.91	0.28
2066.23	1.32
2066.56	1
2066.89	0.92
2067.21	0.72
2067.54	0.88
2067.87	0.8
2068.19	0.76
2068.52	1.12
2068.84	1.32
2069.17	1
2069.5	0.92
2069.82	0.64
2070.15	0.36
2070.48	0.44
2070.8	0.72
2071.13	0.68
2071.46	0.92
2071.78	0.84
2072.11	0.44
2072.43	0.6
2072.76	0.56
2073.09	0.76
2073.41	1.24
2073.74	1.36
2074.07	0.92
2074.39	1.08
2074.72	0.84
2075.04	0.32
2075.37	0.68
2075.7	0.92
2076.02	1.08
2076.35	1.2
2076.67	1.32
2077	1.52
2077.33	1.36
2077.65	1.36
2077.98	1.68
2078.3	2
2078.63	1.8
2078.95	2.16
2079.28	1.92
2079.61	0.92
2079.93	0.52
2080.26	0.16
2080.58	-0.08
2080.91	-0.16
2081.23	0.4
2081.56	0.76
2081.89	0.88
2082.21	0.76
2082.54	0.96
2082.86	1.6
2083.19	1.84
2083.51	1.72
2083.84	1.72
2084.16	1.64
2084.49	1.32
2084.81	0.68
2085.14	0.68
2085.46	0.56
2085.79	0.84
2086.12	0.8
2086.44	0.96
2086.77	1.16
2087.09	1.4
2087.42	1.28
2087.74	1.32
2088.07	1.44
2088.39	1.32
2088.72	1.16
2089.04	0.96
2089.37	0.84
2089.69	0.56
2090.02	0.36
2090.34	0.4
2090.67	0.64
2090.99	-1.76
2091.32	-1.64
2091.64	-1.44
2091.97	-1.56
2092.29	-1.88
2092.62	0.6
2092.94	0.48
2093.26	0.52
2093.59	0.64
2093.91	-0.52
2094.24	-0.56
2094.56	-0.52
2094.89	-0.76
2095.21	-0.88
2095.54	0.32
2095.86	0.08
2096.19	0.16
2096.51	0.24
2096.84	0.6
2097.16	0.92
2097.48	1
2097.81	1.2
2098.13	1.56
2098.46	0.8
2098.78	0.44
2099.11	0.8
2099.43	0.88
2099.75	0.52
2100.08	1.04
2100.4	1.04
2100.73	0.6
2101.05	0.2
2101.38	0.48
2101.7	0.68
2102.02	0.88
2102.35	1.2
2102.67	1.2
2103	0.84
2103.32	0.56
2103.64	0.4
2103.97	0.44
2104.29	0.72
2104.62	0.84
2104.94	1
2105.26	0.56
2105.59	0.24
2105.91	-0.04
2106.23	-0.12
2106.56	-0.16
2106.88	0.36
2107.21	0.56
2107.53	0.56
2107.85	0.6
2108.18	0.84
2108.5	1
2108.82	1
2109.15	1
2109.47	0.96
2109.79	0.68
2110.12	0.84
2110.44	0.88
2110.76	0.92
2111.09	0.96
2111.41	0.96
2111.73	0.56
2112.06	0.8
2112.38	1.04
2112.7	0.56
2113.03	0.44
2113.35	0.96
2113.67	0.76
2114	0.76
2114.32	1.68
2114.64	1.68
2114.97	1.12
2115.29	0.96
2115.61	0.68
2115.94	0.16
2116.26	0.28
2116.58	0.28
2116.91	-0.84
2117.23	-0.6
2117.55	-0.08
2117.87	-0.16
2118.2	0.04
2118.52	1.24
2118.84	1.24
2119.17	0.72
2119.49	1
2119.81	0.8
2120.13	0.56
2120.46	0.32
2120.78	-0.28
2121.1	-0.48
2121.42	-0.36
2121.75	-0.36
2122.07	-0.16
2122.39	0.68
2122.72	0.56
2123.04	0.56
2123.36	0.64
2123.68	0.44
2124.01	0.24
2124.33	0.76
2124.65	0.64
2124.97	0.6
2125.29	0.8
2125.62	0.76
2125.94	0.28
2126.26	0.36
2126.58	0.64
2126.91	-0.48
2127.23	-0.48
2127.55	0.2
2127.87	0.12
2128.2	-0.08
2128.52	1.08
2128.84	1.08
2129.16	0.36
2129.48	0.44
2129.81	0.52
2130.13	0.44
2130.45	0.72
2130.77	1.16
2131.09	1.08
2131.42	1.48
2131.74	1.32
2132.06	1.52
2132.38	1.28
2132.7	1.32
2133.02	0.8
2133.35	0.88
2133.67	0.48
2133.99	0.52
2134.31	-0.08
2134.63	-0.16
2134.96	0.2
2135.28	0.2
2135.6	-0.04
2135.92	0.64
2136.24	0.92
2136.56	0.48
2136.88	0.6
2137.21	0.6
2137.53	0.52
2137.85	0.68
2138.17	0.16
2138.49	5.21806e-17
2138.81	5.21806e-17
2139.13	2.4425e-17
2139.46	-0.36
2139.78	0.4
2140.1	0.64
2140.42	0.72
2140.74	0.96
2141.06	0.92
2141.38	0.68
2141.7	0.52
2142.03	0.68
2142.35	0.4
2142.67	0.68
2142.99	0.68
2143.31	0.64
2143.63	0.68
2143.95	1.04
2144.27	1.12
2144.59	1.52
2144.91	1.24
2145.24	1.12
2145.56	0.8
2145.88	0.96
2146.2	0.56
2146.52	0.96
2146.84	1.04
2147.16	1.4
2147.48	0.84
2147.8	1.08
2148.12	1
2148.44	0.8
2148.76	0.84
2149.08	1
2149.41	0.76
2149.73	0.76
2150.05	0.8
2150.37	0.44
2150.69	0.28
2151.01	0.68
2151.33	0.68
2151.65	0.72
2151.97	0.96
2152.29	1.52
2152.61	1.08
2152.93	0.96
2153.25	1.32
2153.57	1.52
2153.89	1.08
2154.21	0.72
2154.53	1.24
2154.85	0.8
2155.17	0.44
2155.49	0.2
2155.81	1.36
2156.13	0.96
2156.45	1.52
2156.77	1.48
2157.09	1.88
2157.41	1.32
2157.73	1.36
2158.05	0.76
2158.37	0.64
2158.69	0.48
2159.01	0.48
2159.33	0.4
2159.65	0.88
2159.97	0.92
2160.29	0.84
2160.61	1
2160.93	0.92
2161.25	1.04
2161.57	1.04
2161.89	1.12
2162.21	0.76
2162.53	0.88
2162.85	-0.32
2163.17	0.12
2163.49	0.2
2163.81	0.32
2164.13	0.2
2164.45	0.4
2164.77	-6.66107e-18
2165.08	-0.08
2165.4	-0.2
2165.72	0
2166.04	0.4
2166.36	0.48
2166.68	0.36
2167	0.36
2167.32	0.4
2167.64	0.48
2167.96	0.48
2168.28	0.56
2168.6	0.8
2168.92	0.6
2169.24	1.04
2169.55	0.88
2169.87	0.8
2170.19	0.88
2170.51	0.92
2170.83	0.64
2171.15	0.88
2171.47	1.24
2171.79	0.92
2172.11	0.88
2172.43	0.72
2172.74	0.96
2173.06	0.72
2173.38	0.92
2173.7	1.12
2174.02	1.28
2174.34	1.16
2174.66	1.24
2174.98	1.4
2175.29	1.16
2175.61	1.08
2175.93	1.48
2176.25	1.28
2176.57	0.92
2176.89	1.04
2177.21	1
2177.52	0.24
2177.84	0.44
2178.16	0.52
2178.48	0.4
2178.8	0.68
2179.12	0.72
2179.43	0.76
2179.75	-0.08
2180.07	0.16
2180.39	-0.16
2180.71	-0.2
2181.03	-0.44
2181.34	0.4
2181.66	0.36
2181.98	0.68
2182.3	0.68
2182.62	0.68
2182.93	0.2
2183.25	0.16
2183.57	-0.08
2183.89	-0.04
2184.21	-0.04
2184.52	0.96
2184.84	0.92
2185.16	0.76
2185.48	0.72
2185.8	0.72
2186.11	0.24
2186.43	0.12
2186.75	0.12
2187.07	0.08
2187.39	-0.6
2187.7	-0.6
2188.02	-1.2
2188.34	-1.08
2188.66	-0.84
2188.97	-0.16
2189.29	-0.12
2189.61	0.96
2189.93	1.12
2190.24	0.96
2190.56	1.32
2190.88	1.16
2191.2	1.04
2191.51	0.96
2191.83	0.96
2192.15	0.84
2192.47	1.12
2192.78	0.84
2193.1	0.72
2193.42	1.2
2193.74	1.04
2194.05	0.76
2194.37	0.76
2194.69	0.88
2195	0.04
2195.32	-3.33053e-18
2195.64	0.4
2195.96	0.48
2196.27	0.44
2196.59	0.48
2196.91	0.72
2197.22	0.36
2197.54	0.24
2197.86	0.08
2198.18	0.64
2198.49	0.36
2198.81	0.36
2199.13	0.36
2199.44	0.36
2199.76	0.24
2200.08	0.28
2200.39	0.24
2200.71	0.48
2201.03	0.72
2201.34	0.56
2201.66	0.64
2201.98	1.08
2202.29	0.84
2202.61	0.6
2202.93	0.6
2203.24	0.8
2203.56	0.68
2203.88	0.8
2204.19	0.8
2204.51	1.48
2204.83	1.16
2205.14	1.16
2205.46	1.08
2205.78	1.12
2206.09	0.72
2206.41	1.16
2206.72	0.64
2207.04	0.6
2207.36	0.36
2207.67	0.28
2207.99	4.2189e-17
2208.31	0.32
2208.62	0.28
2208.94	0.64
2209.25	0.56
2209.57	0.6
2209.89	0.48
2210.2	0.92
2210.52	0.84
2210.83	0.8
2211.15	0.72
2211.47	0.84
2211.78	0.4
2212.1	-0.08
2212.41	0.12
2212.73	0.16
2213.05	0.2
2213.36	0.32
2213.68	0.72
2213.99	0.68
2214.31	0.52
2214.62	0.52
2214.94	0.72
2215.26	0.72
2215.57	0.48
2215.89	0.52
2216.2	1.08
2216.52	1.2
2216.83	1.2
2217.15	1.2
2217.46	1.28
2217.78	1.04
2218.1	0.52
2218.41	0.68
2218.73	0.72
2219.04	0.72
2219.36	0.28
2219.67	0.84
2219.99	0.68
2220.3	0.64
2220.62	0.64
2220.93	0.64
2221.25	0.56
2221.56	0.72
2221.88	0.88
2222.19	1.44
2222.51	1.6
2222.82	-0.16
2223.14	-0.32
2223.45	-0.48
2223.77	-1
2224.08	-1.2
2224.4	0.76
2224.71	1
2225.03	1
2225.34	1.08
2225.66	-0.32
2225.97	-0.36
2226.29	-0.6
2226.6	-0.6
2226.92	-0.84
2227.23	0.6
2227.55	0.28
2227.86	0.28
2228.18	0.44
2228.49	0.44
2228.81	0.48
2229.12	0.88
2229.44	1.08
2229.75	1.12
2230.07	1.2
2230.38	1.32
2230.69	1.24
2231.01	1.12
2231.32	1
2231.64	0.92
2231.95	0.72
2232.27	0.2
2232.58	0.32
2232.9	0.8
2233.21	0.88
2233.52	0.92
2233.84	0.88
2234.15	0.68
2234.47	0.36
2234.78	0.28
2235.1	0.36
2235.41	0.68
2235.72	0.68
2236.04	0.6
2236.35	0.68
2236.67	0.16
2236.98	-0.16
2237.29	-0.16
2237.61	-0.32
2237.92	-0.4
2238.24	0.08
2238.55	0.08
2238.86	0.32
2239.18	0.32
2239.49	0.08
2239.8	0.2
2240.12	0.2
2240.43	0.08
2240.75	0.2
2241.06	0.92
2241.37	0.88
2241.69	0.96
2242	1.48
2242.31	1.36
2242.63	1.24
2242.94	1.08
2243.26	0.8
2243.57	0.44
2243.88	0.44
2244.2	0.52
2244.51	0.52
2244.82	0.76
2245.14	0.48
2245.45	0.48
2245.76	0.12
2246.08	0.32
2246.39	0.44
2246.7	0.6
2247.02	0.6
2247.33	0.52
2247.64	0.6
2247.96	0.44
2248.27	0.68
2248.58	-0.32
2248.9	-0.28
2249.21	-0.24
2249.52	-0.16
2249.83	-0.36
2250.15	0.64
2250.46	1.08
2250.77	0.92
2251.09	0.88
2251.4	0.8
2251.71	0.88
2252.03	0.48
2252.34	0.32
2252.65	0.52
2252.96	0.52
2253.28	0.44
2253.59	0.36
2253.9	0.6
2254.21	0.36
2254.53	0.72
2254.84	0.36
2255.15	0.4
2255.47	0.6
2255.78	0.84
2256.09	0.44
2256.4	0.8
2256.72	0.76
2257.03	0.64
2257.34	0.64
2257.65	0.76
2257.97	0.76
2258.28	1
2258.59	1
2258.9	0.76
2259.22	0.96
2259.53	0.96
2259.84	0.72
2260.15	0.4
2260.46	0.48
2260.78	0.32
2261.09	0.32
2261.4	0.36
2261.71	0.4
2262.03	0.44
2262.34	0.44
2262.65	0.52
2262.96	0.56
2263.27	0.92
2263.59	1.16
2263.9	0.92
2264.21	0.88
2264.52	0.8
2264.83	0.48
2265.15	0.12
2265.46	0.56
2265.77	0.72
2266.08	0.96
2266.39	0.92
2266.7	0.92
2267.02	0.48
2267.33	0.24
2267.64	0.16
2267.95	0.12
2268.26	0.36
2268.57	0.52
2268.89	0.72
2269.2	0.56
2269.51	0.56
2269.82	0.76
2270.13	0.84
2270.44	0.68
2270.76	0.28
2271.07	0.28
2271.38	-0.4
2271.69	-0.64
2272	-0.48
2272.31	0.04
2272.62	-0.4
2272.93	-0.16
2273.25	0.52
2273.56	0.48
2273.87	0.36
2274.18	1
2274.49	1.2
2274.8	0.64
2275.11	0.56
2275.42	0.92
2275.74	1.16
2276.05	1.16
2276.36	1.24
2276.67	1.2
2276.98	1
2277.29	0.72
2277.6	0.68
2277.91	0.52
2278.22	0.36
2278.53	0.24
2278.85	0.08
2279.16	-1.08
2279.47	-1
2279.78	-0.72
2280.09	-0.52
2280.4	-0.44
2280.71	0.8
2281.02	0.68
2281.33	0.68
2281.64	0.64
2281.95	0.56
2282.26	0.72
2282.57	0.88
2282.88	0.8
2283.19	0.64
2283.5	0.64
2283.82	0.64
2284.13	0.64
2284.44	0.68
2284.75	0.28
2285.06	0.48
2285.37	0.16
2285.68	0.04
2285.99	0.04
2286.3	0.72
2286.61	0.56
2286.92	0.56
2287.23	0.52
2287.54	0.44
2287.85	0.2
2288.16	0.4
2288.47	0.4
2288.78	0.44
2289.09	0.76
2289.4	1.04
2289.71	0.92
2290.02	0.84
2290.33	0.8
2290.64	0.48
2290.95	-0.08
2291.26	-0.08
2291.57	0.04
2291.88	-0.36
2292.19	-0.24
2292.5	-0.04
2292.81	-0.16
2293.12	-0.28
2293.43	0.12
2293.74	0
2294.05	0
2294.36	0
2294.67	0
2294.98	0
2295.29	0
2295.6	0
2295.91	0
2296.21	0
2296.52	0
2296.83	0
2297.14	0
2297.45	0
2297.76	0
2298.07	0
2298.38	0
2298.69	0
2299	0
2299.31	0
2299.62	0
2299.93	0
2300.24	0
2300.55	0
2300.85	0
2301.16	0
2301.47	0
2301.78	0
2302.09	0
2302.4	0
2302.71	0
2303.02	0
2303.33	0
2303.64	0
2303.94	0
2304.25	0
2304.56	0
2304.87	0
2305.18	0
2305.49	0
2305.8	0
2306.11	0
2306.42	0
2306.72	0
2307.03	0
2307.34	0
2307.65	0
2307.96	0
2308.27	0
2308.58	0
2308.88	0
2309.19	0
2309.5	0
2309.81	0
2310.12	0
2310.43	0
2310.74	0
2311.04	0
2311.35	0
2311.66	0
2311.97	0
2312.28	0
2312.59	0
2312.89	0
2313.2	0
2313.51	0
2313.82	0
2314.13	0
2314.43	0
2314.74	0
2315.05	0
2315.36	0
2315.67	0
2315.97	0
2316.28	0
2316.59	0
2316.9	0
2317.21	0
2317.51	0
2317.82	0
2318.13	0
2318.44	0
2318.75	0
2319.05	0
2319.36	0
2319.67	0
2319.98	0
2320.28	0
2320.59	0
2320.9	0
2321.21	0
2321.51	0
2321.82	0
2322.13	0
2322.44	0
2322.74	0
2323.05	0
2323.36	0
2323.67	0
2323.97	0
2324.28	0
2324.59	0
2324.9	0
2325.2	0
2325.51	0
2325.82	0
2326.13	0
2326.43	0
2326.74	0
2327.05	0
2327.35	0
2327.66	0
2327.97	0
2328.27	0
2328.58	0
2328.89	0
2329.2	0
2329.5	0
2329.81	0
2330.12	0
2330.42	0
2330.73	0
2331.04	0
2331.34	0
2331.65	0
2331.96	0
2332.26	0
2332.57	0
2332.88	0
2333.18	0
2333.49	0
2333.8	0
2334.1	0
2334.41	0
2334.72	0
2335.02	0
2335.33	0
2335.64	0
2335.94	0
2336.25	0
2336.56	0
2336.86	0
2337.17	0
2337.48	0
2337.78	0
2338.09	0
2338.39	0
2338.7	0
2339.01	0
2339.31	0
2339.62	0
2339.93	0
2340.23	0
2340.54	0
2340.84	0
2341.15	0
2341.46	0
2341.76	0
2342.07	0
2342.37	0
2342.68	0
2342.99	0
2343.29	0
2343.6	0
2343.9	0
2344.21	0
2344.51	0
2344.82	0
2345.13	0
2345.43	0
2345.74	0
2346.04	0
2346.35	0
2346.65	0
2346.96	0
2347.27	0
2347.57	0
2347.88	0
2348.18	0
2348.49	0
2348.79	0
2349.1	0
2349.4	0
2349.71	0
2350.01	0
2350.32	0
2350.63	0
2350.93	0
2351.24	0
2351.54	0
2351.85	0
2352.15	0
2352.46	0
2352.76	0
2353.07	0
2353.37	0
2353.68	0
2353.98	0
2354.29	0
2354.59	0
2354.9	0
2355.2	0
2355.51	0
2355.81	0
2356.12	0
2356.42	0
2356.73	0
2357.03	0
2357.34	0
2357.64	0
2357.95	0
2358.25	0
2358.55	0
2358.86	0
2359.16	0
2359.47	0
2359.77	0
2360.08	0
2360.38	0
2360.69	0
2360.99	0
2361.3	0
2361.6	0
2361.9	0
2362.21	0
2362.51	0
2362.82	0
2363.12	0
2363.43	0
2363.73	0
2364.04	0
2364.34	0
2364.64	0
2364.95	0
2365.25	0
2365.56	0
2365.86	0
2366.16	0
2366.47	0
2366.77	0
2367.08	0
2367.38	0
2367.68	0
2367.99	0
2368.29	0
2368.6	0
2368.9	0
2369.2	0
2369.51	0
2369.81	0
2370.12	0
2370.42	0
2370.72	0
2371.03	0
2371.33	0
2371.63	0
2371.94	0
2372.24	0
2372.55	0
2372.85	0
2373.15	0
2373.46	0
2373.76	0
2374.06	0
2374.37	0
2374.67	0
2374.97	0
2375.28	0
2375.58	0
2375.88	0
2376.19	0
2376.49	0
2376.79	0
2377.1	0
2377.4	0
2377.7	0
2378.01	0
2378.31	0
2378.61	0
2378.92	0
2379.22	0
2379.52	0
2379.82	0
2380.13	0
2380.43	0
2380.73	0
2381.04	0
2381.34	0
2381.64	0
2381.95	0
2382.25	0
2382.55	0
2382.85	0
2383.16	0
2383.46	0
2383.76	0
2384.06	0
2384.37	0
2384.67	0
2384.97	0
2385.28	0
2385.58	0
2385.88	0
2386.18	0
2386.49	0
2386.79	0
2387.09	0
2387.39	0
2387.69	0
2388	0
2388.3	0
2388.6	0
2388.9	0
2389.21	0
2389.51	0
2389.81	0
2390.11	0
2390.42	0
2390.72	0
2391.02	0
2391.32	0
2391.62	0
2391.93	0
2392.23	0
2392.53	0
2392.83	0
2393.13	0
2393.44	0
2393.74	0
2394.04	0
2394.34	0
2394.64	0
2394.95	0
2395.25	0
2395.55	0
2395.85	0
2396.15	0
2396.45	0
2396.76	0
2397.06	0
2397.36	0
2397.66	0
2397.96	0
2398.26	0
2398.57	0
2398.87	0
2399.17	0
2399.47	0
2399.77	0
2400.07	0
2400.37	0
2400.68	0
2400.98	0
2401.28	0
2401.58	0
2401.88	0
2402.18	0
2402.48	0
2402.79	0
2403.09	0
2403.39	0
2403.69	0
2403.99	0
2404.29	0
2404.59	0
2404.89	0
2405.19	0
2405.5	0
2405.8	0
2406.1	0
2406.4	0
2406.7	0
2407	0
2407.3	0
2407.6	0
2407.9	0
2408.2	0
2408.5	0
2408.8	0
2409.11	0
2409.41	0
2409.71	0
2410.01	0
2410.31	0
2410.61	0
2410.91	0
2411.21	0
2411.51	0
2411.81	0
2412.11	0
2412.41	0
2412.71	0
2413.01	0
2413.31	0
2413.61	0
2413.91	0
2414.21	0
2414.51	0
2414.81	0
2415.12	0
2415.42	0
2415.72	0
2416.02	0
2416.32	0
2416.62	0
2416.92	0
2417.22	0
2417.52	0
2417.82	0
2418.12	0
2418.42	0
2418.72	0
2419.02	0
2419.32	0
2419.62	0
2419.92	0
2420.22	0
2420.52	0
2420.82	0
2421.12	0
2421.42	0
2421.71	0
2422.01	0
2422.31	0
2422.61	0
2422.91	0
2423.21	0
2423.51	0
2423.81	0
2424.11	0
2424.41	0
2424.71	0
2425.01	0
2425.31	0
2425.61	0
2425.91	0
2426.21	0
2426.51	0
2426.81	0
2427.11	0
2427.41	0
2427.7	0
2428	0
2428.3	0
2428.6	0
2428.9	0
2429.2	0
2429.5	0
2429.8	0
2430.1	0
2430.4	0
2430.7	0
2430.99	0
2431.29	0
2431.59	0
2431.89	0
2432.19	0
2432.49	0
2432.79	0
2433.09	0
2433.39	0
2433.68	0
2433.98	0
2434.28	0
2434.58	0
2434.88	0
2435.18	0
2435.48	0
2435.78	0
2436.07	0
2436.37	0
2436.67	0
2436.97	0
2437.27	0
2437.57	0
2437.86	0
2438.16	0
2438.46	0
2438.76	0
2439.06	0
2439.36	0
2439.66	0
2439.95	0
2440.25	0
2440.55	0
2440.85	0
2441.15	0
2441.44	0
2441.74	0
2442.04	0
2442.34	0
2442.64	0
2442.93	0
2443.23	0
2443.53	0
2443.83	0
2444.13	0
2444.42	0
2444.72	0
2445.02	0
2445.32	0
2445.62	0
2445.91	0
2446.21	0
2446.51	0
2446.81	0
2447.1	0
2447.4	0
2447.7	0
2448	0
2448.3	0
2448.59	0
2448.89	0
2449.19	0
2449.49	0
2449.78	0
2450.08	0
2450.38	0
2450.68	0
2450.97	0
2451.27	0
2451.57	0
2451.87	0
2452.16	0
2452.46	0
2452.76	0
2453.05	0
2453.35	0
2453.65	0
2453.95	0
2454.24	0
2454.54	0
2454.84	0
2455.13	0
2455.43	0
2455.73	0
2456.03	0
2456.32	0
2456.62	0
2456.92	0
2457.21	0
2457.51	0
2457.81	0
2458.1	0
2458.4	0
2458.7	0
2458.99	0
2459.29	0
2459.59	0
2459.88	0
2460.18	0
2460.48	0
2460.77	0
2461.07	0
2461.37	0
2461.66	0
2461.96	0
2462.26	0
2462.55	0
2462.85	0
2463.15	0
2463.44	0
2463.74	0
2464.04	0
2464.33	0
2464.63	0
2464.92	0
2465.22	0
2465.52	0
2465.81	0
2466.11	0
2466.41	0
2466.7	0
2467	0
2467.29	0
2467.59	0
2467.89	0
2468.18	0
2468.48	0
2468.77	0
2469.07	0
2469.37	0
2469.66	0
2469.96	0
2470.25	0
2470.55	0
2470.84	0
2471.14	0
2471.44	0
2471.73	0
2472.03	0
2472.32	0
2472.62	0
2472.91	0
2473.21	0
2473.51	0
2473.8	0
2474.1	0
2474.39	0
2474.69	0
2474.98	0
2475.28	0
2475.57	0
2475.87	0
2476.17	0
2476.46	0
2476.76	0
2477.05	0
2477.35	0
2477.64	0
2477.94	0
2478.23	0
2478.53	0
2478.82	0
2479.12	0
2479.41	0
2479.71	0
2480	0
2480.3	0
2480.59	0
2480.89	0
2481.18	0
2481.48	0
2481.77	0
2482.07	0
2482.36	0
2482.66	0
2482.95	0
2483.25	0
2483.54	0
2483.84	0
2484.13	0
2484.43	0
2484.72	0
2485.02	0
2485.31	0
2485.6	0
2485.9	0
2486.19	0
2486.49	0
2486.78	0
2487.08	0
2487.37	0
2487.67	0
2487.96	0
2488.26	0
2488.55	0
2488.84	0
2489.14	0
2489.43	0
2489.73	0
2490.02	0
2490.32	0
2490.61	0
2490.9	0
2491.2	0
2491.49	0
2491.79	0
2492.08	0
2492.37	0
2492.67	0
2492.96	0
2493.26	0
2493.55	0
2493.84	0
2494.14	0
2494.43	0
2494.73	0
2495.02	0
2495.31	0
2495.61	0
2495.9	0
2496.2	0
2496.49	0
2496.78	0
2497.08	0
2497.37	0
2497.66	0
2497.96	0
2498.25	0
2498.54	0
2498.84	0
2499.13	0
2499.43	0
2499.72	0
2500.01	0
2500.31	0
2500.6	0
2500.89	0
2501.19	0
2501.48	0
2501.77	0
2502.07	0
2502.36	0
2502.65	0
2502.95	0
2503.24	0
2503.53	0
2503.82	0
2504.12	0
2504.41	0
2504.7	0
2505	0
2505.29	0
2505.58	0
2505.88	0
2506.17	0
2506.46	0
2506.76	0
2507.05	0
2507.34	0
2507.63	0
2507.93	0
2508.22	0
2508.51	0
2508.8	0
2509.1	0
2509.39	0
2509.68	0
2509.98	0
2510.27	0
2510.56	0
2510.85	0
2511.15	0
2511.44	0
2511.73	0
2512.02	0
2512.32	0
2512.61	0
2512.9	0
2513.19	0
2513.49	0
2513.78	0
2514.07	0
2514.36	0
2514.65	0
2514.95	0
2515.24	0
2515.53	0
2515.82	0
2516.12	0
2516.41	0
2516.7	0
2516.99	0
2517.28	0
2517.58	0
2517.87	0
2518.16	0
2518.45	0
2518.74	0
2519.04	0
2519.33	0
2519.62	0
2519.91	0
2520.2	0
2520.5	0
2520.79	0
2521.08	0
2521.37	0
2521.66	0
2521.95	0
2522.25	0
2522.54	0
2522.83	0
2523.12	0
2523.41	0
2523.7	0
2523.99	0
2524.29	0
2524.58	0
2524.87	0
2525.16	0
2525.45	0
2525.74	0
2526.03	0
2526.33	0
2526.62	0
2526.91	0
2527.2	0
2527.49	0
2527.78	0
2528.07	0
2528.36	0
2528.66	0
2528.95	0
2529.24	0
2529.53	0
2529.82	0
2530.11	0
2530.4	0
2530.69	0
2530.98	0
2531.27	0
2531.57	0
2531.86	0
2532.15	0
2532.44	0
2532.73	0
2533.02	0
2533.31	0
2533.6	0
2533.89	0
2534.18	0
2534.47	0
2534.76	0
2535.05	0
2535.35	0
2535.64	0
2535.93	0
2536.22	0
2536.51	0
2536.8	0
2537.09	0
2537.38	0
2537.67	0
2537.96	0
2538.25	0
2538.54	0
2538.83	0
2539.12	0
2539.41	0
2539.7	0
2539.99	0
2540.28	0
2540.57	0
2540.86	0
2541.15	0
2541.44	0
2541.73	0
2542.02	0
2542.31	0
2542.6	0
2542.89	0
2543.18	0
2543.47	0
2543.76	0
2544.05	0
2544.34	0
2544.63	0
2544.92	0
2545.21	0
2545.5	0
2545.79	0
2546.08	0
2546.37	0
2546.66	0
2546.95	0
2547.24	0
2547.53	0
2547.82	0
2548.11	0
2548.4	0
2548.69	0
2548.98	0
2549.27	0
2549.55	0
2549.84	0
2550.13	0
2550.42	0
2550.71	0
2551	0
2551.29	0
2551.58	0
2551.87	0
2552.16	0
2552.45	0
2552.74	0
2553.03	0
2553.31	0
2553.6	0
2553.89	0
2554.18	0
2554.47	0
2554.76	0
2555.05	0
2555.34	0
2555.63	0
2555.92	0
2556.2	0
2556.49	0
2556.78	0
2557.07	0
2557.36	0
2557.65	0
2557.94	0
2558.23	0
2558.51	0
2558.8	0
2559.09	0
2559.38	0
2559.67	0
2559.96	0
2560.25	0
2560.53	0
2560.82	0
2561.11	0
2561.4	0
2561.69	0
2561.98	0
2562.27	0
2562.55	0
2562.84	0
2563.13	0
2563.42	0
2563.71	0
2564	0
2564.28	0
2564.57	0
2564.86	0
2565.15	0
2565.44	0
2565.72	0
2566.01	0
2566.3	0
2566.59	0
2566.88	0
2567.16	0
2567.45	0
2567.74	0
2568.03	0
2568.32	0
2568.6	0
2568.89	0
2569.18	0
2569.47	0
2569.75	0

