Source: Spectrum Viewer

Chart: Pulse Spectrum

Series: 
Wavelength (nm)	S (a.u.)
1179.9	0
1180.29	0
1180.68	0
1181.06	0
1181.45	0
1181.83	0
1182.22	0
1182.6	0
1182.99	0
1183.38	0
1183.76	0
1184.15	0
1184.53	0
1184.92	0
1185.3	0
1185.69	0
1186.07	0
1186.46	0
1186.85	0
1187.23	0
1187.62	0
1188	0
1188.39	0
1188.77	0
1189.16	0
1189.54	0
1189.93	0
1190.31	0
1190.7	0
1191.08	0
1191.47	0
1191.85	0
1192.24	0
1192.62	0
1193.01	0
1193.39	0
1193.78	0
1194.16	0
1194.55	0
1194.93	0
1195.32	0
1195.7	0
1196.09	0
1196.47	0
1196.86	0
1197.24	0
1197.63	0
1198.01	0
1198.4	0
1198.78	0
1199.16	0
1199.55	0
1199.93	0
1200.32	0
1200.7	0
1201.09	0
1201.47	0
1201.86	0
1202.24	0
1202.63	0
1203.01	0
1203.39	0
1203.78	0
1204.16	0
1204.55	0
1204.93	0
1205.32	0
1205.7	0
1206.08	0
1206.47	0
1206.85	0
1207.24	0
1207.62	0
1208	0
1208.39	0
1208.77	0
1209.16	0
1209.54	0
1209.92	0
1210.31	0
1210.69	0
1211.08	0
1211.46	0
1211.84	0
1212.23	0
1212.61	0
1213	0
1213.38	0
1213.76	0
1214.15	0
1214.53	0
1214.91	0
1215.3	0
1215.68	0
1216.06	0
1216.45	0
1216.83	0
1217.22	0
1217.6	0
1217.98	0
1218.37	0
1218.75	0
1219.13	0
1219.52	0
1219.9	0
1220.28	0
1220.67	0
1221.05	0
1221.43	0
1221.82	0
1222.2	0
1222.58	0
1222.97	0
1223.35	0
1223.73	0
1224.11	0
1224.5	0
1224.88	0
1225.26	0
1225.65	0
1226.03	0
1226.41	0
1226.8	0
1227.18	0
1227.56	0
1227.94	0
1228.33	0
1228.71	0
1229.09	0
1229.47	0
1229.86	0
1230.24	0
1230.62	0
1231.01	0
1231.39	0
1231.77	0
1232.15	0
1232.54	0
1232.92	0
1233.3	0
1233.68	0
1234.07	0
1234.45	0
1234.83	0
1235.21	0
1235.6	0
1235.98	0
1236.36	0
1236.74	0
1237.12	0
1237.51	0
1237.89	0
1238.27	0
1238.65	0
1239.04	0
1239.42	0
1239.8	0
1240.18	0
1240.56	0
1240.95	0
1241.33	0
1241.71	0
1242.09	0
1242.47	0
1242.86	0
1243.24	0
1243.62	0
1244	0
1244.38	0
1244.77	0
1245.15	0
1245.53	0
1245.91	0
1246.29	0
1246.67	0
1247.06	0
1247.44	0
1247.82	0
1248.2	0
1248.58	0
1248.96	0
1249.34	0
1249.73	0
1250.11	0
1250.49	0
1250.87	0
1251.25	0
1251.63	0
1252.01	0
1252.4	0
1252.78	0
1253.16	0
1253.54	0
1253.92	0
1254.3	0
1254.68	0
1255.06	0
1255.45	0
1255.83	0
1256.21	0
1256.59	0
1256.97	0
1257.35	0
1257.73	0
1258.11	0
1258.49	0
1258.87	0
1259.26	0
1259.64	0
1260.02	0
1260.4	0
1260.78	0
1261.16	0
1261.54	0
1261.92	0
1262.3	0
1262.68	0
1263.06	0
1263.44	0
1263.82	0
1264.21	0
1264.59	0
1264.97	0
1265.35	0
1265.73	0
1266.11	0
1266.49	0
1266.87	0
1267.25	0
1267.63	0
1268.01	0
1268.39	0
1268.77	0
1269.15	0
1269.53	0
1269.91	0
1270.29	0
1270.67	0
1271.05	0
1271.43	0
1271.81	0
1272.19	0
1272.57	0
1272.95	0
1273.33	0
1273.71	0
1274.09	0
1274.47	0
1274.85	0
1275.23	0
1275.61	0
1275.99	0
1276.37	0
1276.75	0
1277.13	0
1277.51	0
1277.89	0
1278.27	0
1278.65	0
1279.03	0
1279.41	0
1279.79	0
1280.17	0
1280.55	0
1280.93	0
1281.31	0
1281.69	0
1282.07	0
1282.45	0
1282.82	0
1283.2	0
1283.58	0
1283.96	0
1284.34	0
1284.72	0
1285.1	0
1285.48	0
1285.86	0
1286.24	0
1286.62	0
1287	0
1287.38	0
1287.75	0
1288.13	0
1288.51	0
1288.89	0
1289.27	0
1289.65	0
1290.03	0
1290.41	0
1290.79	0
1291.17	0
1291.54	0
1291.92	0
1292.3	0
1292.68	0
1293.06	0
1293.44	0
1293.82	0
1294.2	0
1294.57	0
1294.95	0
1295.33	0
1295.71	0
1296.09	0
1296.47	0
1296.85	0
1297.22	0
1297.6	0
1297.98	0
1298.36	0
1298.74	0
1299.12	0
1299.5	0
1299.87	0
1300.25	0
1300.63	0
1301.01	0
1301.39	0
1301.77	0
1302.14	0
1302.52	0
1302.9	0
1303.28	0
1303.66	0
1304.03	0
1304.41	0
1304.79	0
1305.17	0
1305.55	0
1305.92	0
1306.3	0
1306.68	0
1307.06	0
1307.44	0
1307.81	0
1308.19	0
1308.57	0
1308.95	0
1309.32	0
1309.7	0
1310.08	0
1310.46	0
1310.84	0
1311.21	0
1311.59	0
1311.97	0
1312.35	0
1312.72	0
1313.1	0
1313.48	0
1313.86	0
1314.23	0
1314.61	0
1314.99	0
1315.37	0
1315.74	0
1316.12	0
1316.5	0
1316.87	0
1317.25	0
1317.63	0
1318.01	0
1318.38	0
1318.76	0
1319.14	0
1319.52	0
1319.89	0
1320.27	0
1320.65	0
1321.02	0
1321.4	0
1321.78	0
1322.15	0
1322.53	0
1322.91	0
1323.29	0
1323.66	0
1324.04	0
1324.42	0
1324.79	0
1325.17	0
1325.55	0
1325.92	0
1326.3	0
1326.68	0
1327.05	0
1327.43	0
1327.81	0
1328.18	0
1328.56	0
1328.94	0
1329.31	0
1329.69	0
1330.06	0
1330.44	0
1330.82	0
1331.19	0
1331.57	0
1331.95	0
1332.32	0
1332.7	0
1333.08	0
1333.45	0
1333.83	0
1334.2	0
1334.58	0
1334.96	0
1335.33	0
1335.71	0
1336.08	0
1336.46	0
1336.84	0
1337.21	0
1337.59	0
1337.96	0
1338.34	0
1338.72	0
1339.09	0
1339.47	0
1339.84	0
1340.22	0
1340.6	0
1340.97	0
1341.35	0
1341.72	0
1342.1	0
1342.47	0
1342.85	0
1343.23	0
1343.6	0
1343.98	0
1344.35	0
1344.73	0
1345.1	0
1345.48	0
1345.85	0
1346.23	0
1346.61	0
1346.98	0
1347.36	0
1347.73	0
1348.11	0
1348.48	0
1348.86	0
1349.23	0
1349.61	0
1349.98	0
1350.36	0
1350.73	0
1351.11	0
1351.48	0
1351.86	0
1352.23	0
1352.61	0
1352.98	0
1353.36	0
1353.73	0
1354.11	0
1354.48	0
1354.86	0
1355.23	0
1355.61	0
1355.98	0
1356.36	0
1356.73	0
1357.11	0
1357.48	0
1357.86	0
1358.23	0
1358.61	0
1358.98	0
1359.35	0
1359.73	0
1360.1	0
1360.48	0
1360.85	0
1361.23	0
1361.6	0
1361.98	0
1362.35	0
1362.72	0
1363.1	0
1363.47	0
1363.85	0
1364.22	0
1364.6	0
1364.97	0
1365.34	0
1365.72	0
1366.09	0
1366.47	0
1366.84	0
1367.22	0
1367.59	0
1367.96	0
1368.34	0
1368.71	0
1369.09	0.12
1369.46	-0.8
1369.83	-0.8
1370.21	-0.8
1370.58	-0.68
1370.96	-0.8
1371.33	0.16
1371.7	0.2
1372.08	0.44
1372.45	0.32
1372.82	0.32
1373.2	0.28
1373.57	0.24
1373.95	0
1374.32	0
1374.69	0.16
1375.07	0.28
1375.44	0.32
1375.81	0.32
1376.19	0.56
1376.56	0.68
1376.93	0.96
1377.31	1.24
1377.68	1.52
1378.05	1.44
1378.43	1.2
1378.8	0.8
1379.17	0.48
1379.55	0.4
1379.92	0.6
1380.29	0.68
1380.67	1.08
1381.04	1.2
1381.41	1
1381.79	0.8
1382.16	0.76
1382.53	0.68
1382.91	-0.32
1383.28	-0.32
1383.65	-0.48
1384.03	-0.44
1384.4	-0.64
1384.77	0.4
1385.14	0.68
1385.52	0.96
1385.89	0.84
1386.26	0.8
1386.64	0.64
1387.01	0.6
1387.38	0.32
1387.75	0.32
1388.13	0.4
1388.5	0.4
1388.87	0.16
1389.25	0.16
1389.62	0.04
1389.99	-0.32
1390.36	-0.32
1390.74	-0.16
1391.11	-0.16
1391.48	0.32
1391.85	0.64
1392.23	0.68
1392.6	0.68
1392.97	1.08
1393.34	0.76
1393.72	0.64
1394.09	0.6
1394.46	0.44
1394.83	0.12
1395.21	0.08
1395.58	0.24
1395.95	0.24
1396.32	0.24
1396.69	0.16
1397.07	0.28
1397.44	0.32
1397.81	0.32
1398.18	0.32
1398.55	0.32
1398.93	0.32
1399.3	0.76
1399.67	0.84
1400.04	1.04
1400.41	1.08
1400.79	0.96
1401.16	0.32
1401.53	0.36
1401.9	0.16
1402.27	0.24
1402.65	0.24
1403.02	0.52
1403.39	0.8
1403.76	0.76
1404.13	0.72
1404.51	1.24
1404.88	0.96
1405.25	0.56
1405.62	0.64
1405.99	0.64
1406.36	0.12
1406.74	0.32
1407.11	0.32
1407.48	0.28
1407.85	-1
1408.22	-0.72
1408.59	-0.8
1408.96	-0.8
1409.34	-0.68
1409.71	0.6
1410.08	0.44
1410.45	0.32
1410.82	0.84
1411.19	0.72
1411.56	0.64
1411.93	0.72
1412.31	0.76
1412.68	0.36
1413.05	0.36
1413.42	0.36
1413.79	0.48
1414.16	0.32
1414.53	0.24
1414.9	0.04
1415.27	0.12
1415.65	-0.04
1416.02	0.08
1416.39	0.04
1416.76	0.28
1417.13	0.24
1417.5	0.32
1417.87	0.32
1418.24	0.68
1418.61	0.64
1418.98	0.68
1419.35	0.52
1419.73	0.64
1420.1	0.48
1420.47	0.52
1420.84	0.76
1421.21	0.72
1421.58	0.72
1421.95	0.52
1422.32	0.72
1422.69	0.48
1423.06	0.44
1423.43	0.76
1423.8	0.92
1424.17	0.8
1424.54	0.84
1424.91	0.88
1425.28	0.44
1425.65	0.48
1426.02	0.48
1426.39	0.36
1426.76	-0.28
1427.14	-0.28
1427.51	-0.36
1427.88	-0.36
1428.25	-0.32
1428.62	0.32
1428.99	0.56
1429.36	0.88
1429.73	1.04
1430.1	1.36
1430.47	1.32
1430.84	1.08
1431.21	0.64
1431.58	0.44
1431.95	0.2
1432.32	0
1432.69	0
1433.06	0
1433.43	-0.08
1433.8	0.08
1434.17	0.4
1434.54	0.76
1434.91	0.84
1435.28	0.84
1435.64	0.6
1436.01	-0.12
1436.38	-0.2
1436.75	-0.28
1437.12	-0.28
1437.49	-0.32
1437.86	0.4
1438.23	0.16
1438.6	0.64
1438.97	0.88
1439.34	0.88
1439.71	0.88
1440.08	1
1440.45	0.72
1440.82	0.08
1441.19	0.08
1441.56	0.12
1441.93	0.16
1442.3	0.04
1442.67	-1.16
1443.03	-0.8
1443.4	-0.96
1443.77	-1.08
1444.14	-1.12
1444.51	0.68
1444.88	0.4
1445.25	0.4
1445.62	0.6
1445.99	0.72
1446.36	0.52
1446.73	0.52
1447.09	0.72
1447.46	0.44
1447.83	0.32
1448.2	0.56
1448.57	0.28
1448.94	0.12
1449.31	0.16
1449.68	0.12
1450.05	-0.08
1450.41	0.12
1450.78	-0.08
1451.15	-0.12
1451.52	0.08
1451.89	0.04
1452.26	0.28
1452.63	0.52
1453	0.6
1453.36	0.84
1453.73	0.92
1454.1	0.72
1454.47	0.96
1454.84	1.32
1455.21	0.88
1455.57	0.68
1455.94	0.64
1456.31	0.32
1456.68	-0.12
1457.05	-2.10945e-17
1457.42	0.12
1457.78	0.4
1458.15	0.52
1458.52	0.52
1458.89	0.4
1459.26	0.4
1459.63	0.12
1459.99	0.24
1460.36	0.36
1460.73	0.36
1461.1	0.64
1461.47	0.8
1461.83	0.68
1462.2	0.76
1462.57	1.04
1462.94	1.12
1463.31	1.12
1463.67	1.08
1464.04	0.68
1464.41	0.4
1464.78	-0.52
1465.15	-0.56
1465.51	-0.6
1465.88	-0.36
1466.25	-0.24
1466.62	0.32
1466.98	0.24
1467.35	0.24
1467.72	0.36
1468.09	0.32
1468.46	0.48
1468.82	0.68
1469.19	0.96
1469.56	0.96
1469.93	1.12
1470.29	0.96
1470.66	1.04
1471.03	0.72
1471.4	0.84
1471.76	0.8
1472.13	0.8
1472.5	0.72
1472.86	0.84
1473.23	0.56
1473.6	0.48
1473.97	0.88
1474.33	0.72
1474.7	0.76
1475.07	1.04
1475.44	1
1475.8	0.4
1476.17	0.52
1476.54	0.36
1476.9	0.24
1477.27	0.16
1477.64	0.36
1478	0.8
1478.37	0.8
1478.74	0.76
1479.11	0.8
1479.47	0.96
1479.84	0.32
1480.21	0.36
1480.57	0.24
1480.94	0.28
1481.31	0.24
1481.67	0.56
1482.04	0.52
1482.41	0.6
1482.77	0.52
1483.14	0.4
1483.51	0.4
1483.87	0.44
1484.24	0.36
1484.61	0.4
1484.97	0.6
1485.34	0.36
1485.71	-0.4
1486.07	-0.36
1486.44	-0.24
1486.81	-0.36
1487.17	-0.44
1487.54	0.44
1487.9	0.4
1488.27	0.24
1488.64	-0.04
1489	0.12
1489.37	-0.04
1489.74	-0.04
1490.1	-0.04
1490.47	0.24
1490.83	0.4
1491.2	0.84
1491.57	1.12
1491.93	1.16
1492.3	1.08
1492.66	1.04
1493.03	0.68
1493.4	0.48
1493.76	0.44
1494.13	0.44
1494.49	0.44
1494.86	0.36
1495.23	0.4
1495.59	0.64
1495.96	-0.76
1496.32	-0.96
1496.69	-0.96
1497.06	-1.08
1497.42	-2.12
1497.79	-0.56
1498.15	-0.6
1498.52	-0.6
1498.88	-0.48
1499.25	0.48
1499.62	0.44
1499.98	0.4
1500.35	0.4
1500.71	0.48
1501.08	0.32
1501.44	0.48
1501.81	0.48
1502.17	0.52
1502.54	0.52
1502.9	0.76
1503.27	0.92
1503.64	1.16
1504	1.32
1504.37	1.12
1504.73	0.88
1505.1	0.44
1505.46	0.24
1505.83	0.16
1506.19	0.16
1506.56	0.2
1506.92	0.44
1507.29	0.4
1507.65	0.44
1508.02	0.44
1508.38	0.56
1508.75	0.32
1509.11	0.32
1509.48	0.24
1509.84	0.24
1510.21	0.08
1510.57	0.08
1510.94	0.08
1511.3	0
1511.67	0.24
1512.03	0.48
1512.4	0.64
1512.76	0.8
1513.13	-0.2
1513.49	-0.64
1513.85	-0.72
1514.22	-0.8
1514.58	-0.8
1514.95	0.36
1515.31	0.56
1515.68	0.52
1516.04	0.64
1516.41	0.68
1516.77	0.56
1517.14	0.56
1517.5	0.44
1517.86	0.24
1518.23	0.36
1518.59	0.32
1518.96	0.44
1519.32	0.56
1519.69	0.56
1520.05	0.32
1520.41	0.36
1520.78	0.44
1521.14	0.36
1521.51	0.4
1521.87	0.32
1522.24	0.28
1522.6	0.36
1522.96	0.76
1523.33	1
1523.69	1.4
1524.06	1.4
1524.42	1.16
1524.78	0.84
1525.15	0.56
1525.51	0.32
1525.88	0.32
1526.24	0.52
1526.6	0.4
1526.97	0.64
1527.33	0.52
1527.69	0.52
1528.06	0.84
1528.42	0.84
1528.79	0.64
1529.15	-0.2
1529.51	-0.2
1529.88	-0.76
1530.24	-0.76
1530.6	-0.8
1530.97	0
1531.33	0
1531.69	0
1532.06	0
1532.42	0
1532.78	0
1533.15	0.04
1533.51	0.04
1533.87	0.44
1534.24	0.44
1534.6	0.64
1534.96	0.8
1535.33	0.8
1535.69	0.92
1536.05	1.12
1536.42	1.08
1536.78	0.88
1537.14	1.04
1537.51	0.52
1537.87	0.4
1538.23	0.6
1538.6	0.6
1538.96	0.52
1539.32	0.64
1539.68	0.92
1540.05	0.6
1540.41	0.6
1540.77	0.52
1541.14	0.4
1541.5	0.04
1541.86	0
1542.23	0.28
1542.59	0.28
1542.95	0.28
1543.31	0.56
1543.68	0.88
1544.04	0.6
1544.4	0.64
1544.76	0.64
1545.13	0.6
1545.49	0.28
1545.85	0.28
1546.21	0.48
1546.58	0.48
1546.94	0.32
1547.3	0.36
1547.66	0.52
1548.03	0.4
1548.39	0.88
1548.75	0.8
1549.11	1
1549.48	1.16
1549.84	1.04
1550.2	0.88
1550.56	1.12
1550.93	0.88
1551.29	0.56
1551.65	0.64
1552.01	0.32
1552.37	0.08
1552.74	0.4
1553.1	0.52
1553.46	0.44
1553.82	0.44
1554.18	0.56
1554.55	0.24
1554.91	0.12
1555.27	0.16
1555.63	0.2
1555.99	0.32
1556.36	0.36
1556.72	-1.08
1557.08	-1.08
1557.44	-1.08
1557.8	-1.32
1558.17	-1.24
1558.53	0.2
1558.89	0.32
1559.25	0.48
1559.61	0.48
1559.97	0.4
1560.34	0.68
1560.7	0.72
1561.06	0.6
1561.42	0.64
1561.78	0.76
1562.14	0.08
1562.5	0.16
1562.87	0.24
1563.23	0.2
1563.59	-0.28
1563.95	0.2
1564.31	2.10945e-17
1564.67	-0.12
1565.03	-2.10945e-17
1565.4	0.32
1565.76	0.24
1566.12	0.16
1566.48	0.24
1566.84	0.4
1567.2	0.64
1567.56	0.64
1567.92	0.68
1568.29	1.28
1568.65	1.08
1569.01	0.84
1569.37	0.44
1569.73	0.84
1570.09	0.48
1570.45	0.6
1570.81	0.6
1571.17	1
1571.53	0.56
1571.89	0.2
1572.26	0.04
1572.62	0.16
1572.98	0.16
1573.34	0.36
1573.7	0.44
1574.06	0.84
1574.42	1.12
1574.78	1.2
1575.14	1
1575.5	1.08
1575.86	0.08
1576.22	-0.32
1576.58	-0.24
1576.94	-0.24
1577.3	-0.12
1577.67	0.56
1578.03	0.64
1578.39	0.48
1578.75	0.48
1579.11	0.36
1579.47	0.36
1579.83	0.36
1580.19	0.36
1580.55	0.4
1580.91	0.28
1581.27	0.2
1581.63	0.28
1581.99	0.48
1582.35	0.44
1582.71	0.8
1583.07	1.16
1583.43	1
1583.79	0.8
1584.15	1.04
1584.51	0.88
1584.87	0.6
1585.23	0.6
1585.59	0.6
1585.95	0.36
1586.31	0.12
1586.67	0
1587.03	0
1587.39	0
1587.75	0.08
1588.11	0.08
1588.47	0.08
1588.83	0.28
1589.19	0.28
1589.55	0.48
1589.91	0.68
1590.27	0.68
1590.63	0.68
1590.99	0.8
1591.35	0.52
1591.71	0.36
1592.07	0.36
1592.42	0.24
1592.78	0.12
1593.14	0.4
1593.5	0.6
1593.86	0.6
1594.22	0.68
1594.58	0.8
1594.94	0.52
1595.3	0.28
1595.66	0.32
1596.02	0.16
1596.38	0.04
1596.74	0.24
1597.1	0.24
1597.46	0.24
1597.81	0.24
1598.17	0.28
1598.53	0.08
1598.89	0.24
1599.25	0.52
1599.61	0.72
1599.97	0.68
1600.33	1.04
1600.69	1.44
1601.05	1.44
1601.4	1.48
1601.76	1.08
1602.12	0.96
1602.48	0.6
1602.84	0.44
1603.2	0.2
1603.56	0.76
1603.92	0.92
1604.28	0.72
1604.63	0.64
1604.99	0.8
1605.35	1
1605.71	0.8
1606.07	0.84
1606.43	0.76
1606.79	0.68
1607.14	0.72
1607.5	0.52
1607.86	0.8
1608.22	0.96
1608.58	1.2
1608.94	0.92
1609.29	1.16
1609.65	0.8
1610.01	1.16
1610.37	1.04
1610.73	1.6
1611.09	1.84
1611.44	1.96
1611.8	1.56
1612.16	1.44
1612.52	0.88
1612.88	0.4
1613.24	0.48
1613.59	0.52
1613.95	0.52
1614.31	0.4
1614.67	0.6
1615.03	0.52
1615.38	0.8
1615.74	0.8
1616.1	0.88
1616.46	0.68
1616.82	0.6
1617.17	0.2
1617.53	0.12
1617.89	0.16
1618.25	0.16
1618.6	0.24
1618.96	0.32
1619.32	0.68
1619.68	0.72
1620.04	0.72
1620.39	0.64
1620.75	0.52
1621.11	0.24
1621.47	0.08
1621.82	0.08
1622.18	0.52
1622.54	0.84
1622.9	1.44
1623.25	0.68
1623.61	0.76
1623.97	0.4
1624.33	0.56
1624.68	-0.24
1625.04	0.68
1625.4	0.64
1625.75	0.12
1626.11	-0.04
1626.47	0.48
1626.83	0.68
1627.18	1
1627.54	1.52
1627.9	1.32
1628.26	1
1628.61	1.2
1628.97	0.84
1629.33	1.56
1629.68	1.56
1630.04	1.68
1630.4	0.76
1630.75	1
1631.11	0.44
1631.47	0.76
1631.83	0.56
1632.18	1.12
1632.54	1
1632.9	0.76
1633.25	0.52
1633.61	0.64
1633.97	0.64
1634.32	0.84
1634.68	1.12
1635.04	0.92
1635.39	0.8
1635.75	0.88
1636.11	0.56
1636.46	0.28
1636.82	0.48
1637.18	0.8
1637.53	0.52
1637.89	0.96
1638.25	1.24
1638.6	1.04
1638.96	1.8
1639.31	1.88
1639.67	1.48
1640.03	1.4
1640.38	1.52
1640.74	0.84
1641.1	0.76
1641.45	0.72
1641.81	0.76
1642.16	0.8
1642.52	1.04
1642.88	1.04
1643.23	0.52
1643.59	0.4
1643.95	0.56
1644.3	-0.04
1644.66	0.04
1645.01	0.88
1645.37	1.12
1645.73	1.36
1646.08	1.6
1646.44	1.52
1646.79	0.64
1647.15	0.64
1647.51	0.24
1647.86	-0.04
1648.22	-0.04
1648.57	-0.28
1648.93	-0.52
1649.28	-0.68
1649.64	-0.56
1650	-0.56
1650.35	0.36
1650.71	0.24
1651.06	0.24
1651.42	0.36
1651.77	0.16
1652.13	0.32
1652.48	0.32
1652.84	0.32
1653.2	0.08
1653.55	0.32
1653.91	0.24
1654.26	0.24
1654.62	0.24
1654.97	0.52
1655.33	0.48
1655.68	0.48
1656.04	0.48
1656.39	0.72
1656.75	0.44
1657.1	0.68
1657.46	0.48
1657.81	0.68
1658.17	0.44
1658.52	0.48
1658.88	0.36
1659.23	0.44
1659.59	0.24
1659.94	0.24
1660.3	0.2
1660.65	0.2
1661.01	0.16
1661.36	0.44
1661.72	0.8
1662.07	1.24
1662.43	1.2
1662.78	1.32
1663.14	1.16
1663.49	0.96
1663.85	0.68
1664.2	1.04
1664.56	1.16
1664.91	-0.56
1665.27	-0.52
1665.62	-0.68
1665.98	-0.36
1666.33	-0.56
1666.69	1.24
1667.04	1.04
1667.39	1.12
1667.75	0.72
1668.1	1.2
1668.46	1.24
1668.81	1.68
1669.17	1.8
1669.52	1.68
1669.88	1.44
1670.23	1.28
1670.58	0.84
1670.94	0.72
1671.29	0.96
1671.65	1.12
1672	1.16
1672.36	1.2
1672.71	1.8
1673.06	1.52
1673.42	1.6
1673.77	2.4
1674.13	2.48
1674.48	2.84
1674.83	3.24
1675.19	3.68
1675.54	3.04
1675.9	3.44
1676.25	3.2
1676.6	2.88
1676.96	2.24
1677.31	2
1677.67	1.56
1678.02	1.16
1678.37	0.88
1678.73	0.68
1679.08	1.24
1679.43	2.08
1679.79	2.32
1680.14	3.04
1680.5	3.16
1680.85	2.8
1681.2	2.04
1681.56	2.16
1681.91	1.84
1682.26	2.16
1682.62	2.92
1682.97	2.76
1683.32	2.84
1683.68	3.6
1684.03	3.32
1684.38	2.92
1684.74	3.88
1685.09	3.36
1685.44	2.72
1685.8	3.84
1686.15	3.64
1686.5	3.24
1686.86	3.48
1687.21	3.4
1687.56	2.12
1687.92	2.32
1688.27	2.04
1688.62	1.64
1688.98	1.96
1689.33	2.08
1689.68	2.32
1690.03	2.24
1690.39	2.56
1690.74	2.24
1691.09	2.36
1691.45	1.4
1691.8	1.6
1692.15	1.6
1692.5	1.28
1692.86	1.12
1693.21	1.32
1693.56	1.04
1693.92	0.92
1694.27	0.44
1694.62	0.2
1694.97	0.48
1695.33	0.92
1695.68	1.08
1696.03	1.76
1696.38	2.56
1696.74	2.6
1697.09	1.96
1697.44	1.96
1697.79	1.96
1698.15	1.2
1698.5	0.84
1698.85	1.24
1699.2	0.44
1699.56	0.8
1699.91	1.36
1700.26	1.76
1700.61	1.92
1700.97	2.92
1701.32	2.76
1701.67	2.52
1702.02	2.12
1702.37	2
1702.73	1.92
1703.08	1.8
1703.43	2.28
1703.78	2.44
1704.13	2.8
1704.49	2.28
1704.84	2.16
1705.19	1.6
1705.54	1.84
1705.89	1.2
1706.25	1.8
1706.6	1.56
1706.95	1.6
1707.3	1.52
1707.65	1.64
1708.01	1.12
1708.36	1.44
1708.71	1.36
1709.06	1.04
1709.41	1.2
1709.76	1
1710.12	1.2
1710.47	1.36
1710.82	1.92
1711.17	1.56
1711.52	2.16
1711.87	1.96
1712.23	1.68
1712.58	1.52
1712.93	1.56
1713.28	1.04
1713.63	1.32
1713.98	1.48
1714.33	1.08
1714.69	1.32
1715.04	2.04
1715.39	1.76
1715.74	1.96
1716.09	2.16
1716.44	1.96
1716.79	1.4
1717.14	1.2
1717.5	0.8
1717.85	0.84
1718.2	0.76
1718.55	0.52
1718.9	0.44
1719.25	0.48
1719.6	0.24
1719.95	0.36
1720.3	0.4
1720.65	0.52
1721.01	0.44
1721.36	0.68
1721.71	0.56
1722.06	0.28
1722.41	0.08
1722.76	0.04
1723.11	1.33221e-17
1723.46	0.04
1723.81	0.36
1724.16	0.84
1724.51	1.08
1724.86	0.92
1725.21	1.16
1725.56	1.28
1725.92	1
1726.27	0.76
1726.62	0.68
1726.97	0.4
1727.32	-0.08
1727.67	0.28
1728.02	0.4
1728.37	0.6
1728.72	0.76
1729.07	1.36
1729.42	0.88
1729.77	0.84
1730.12	1.4
1730.47	1.48
1730.82	1.96
1731.17	2.36
1731.52	2.96
1731.87	3.16
1732.22	3.88
1732.57	3.88
1732.92	3.92
1733.27	4.44
1733.62	5
1733.97	5.32
1734.32	6.6
1734.67	6.68
1735.02	7.36
1735.37	7.76
1735.72	8.92
1736.07	10.08
1736.42	12.96
1736.77	16.44
1737.12	19.44
1737.47	21.68
1737.82	24.92
1738.17	27.96
1738.52	31.56
1738.87	33.48
1739.22	36.8
1739.57	40.08
1739.92	43.24
1740.27	44.48
1740.62	49.36
1740.97	52.8
1741.32	54.56
1741.67	57.84
1742.02	62.28
1742.37	66.04
1742.72	69.76
1743.06	74
1743.41	78.68
1743.76	81.88
1744.11	84.52
1744.46	88.08
1744.81	94.6
1745.16	98.76
1745.51	103.16
1745.86	107.44
1746.21	116.16
1746.56	121.12
1746.91	125.52
1747.26	131.32
1747.6	137.96
1747.95	140.36
1748.3	145.8
1748.65	152.64
1749	160.28
1749.35	166.2
1749.7	170.24
1750.05	176.88
1750.4	186.16
1750.75	188.12
1751.09	194
1751.44	207.04
1751.79	207.2
1752.14	212.8
1752.49	223.64
1752.84	226
1753.19	232.92
1753.54	241.64
1753.88	241.96
1754.23	253.12
1754.58	263.92
1754.93	265.72
1755.28	281.8
1755.63	289.24
1755.98	295.04
1756.32	307.48
1756.67	312.24
1757.02	319.28
1757.37	337.16
1757.72	337.92
1758.07	349.36
1758.42	367
1758.76	372.68
1759.11	383.64
1759.46	395.04
1759.81	402.48
1760.16	414.16
1760.5	418.52
1760.85	426.88
1761.2	444.64
1761.55	448.28
1761.9	457.84
1762.25	474.48
1762.59	481.64
1762.94	496.48
1763.29	505.48
1763.64	514.6
1763.99	532.16
1764.33	535.32
1764.68	541.8
1765.03	558.92
1765.38	564.16
1765.73	575.28
1766.07	591.64
1766.42	600.44
1766.77	616.76
1767.12	625.48
1767.46	633.92
1767.81	655.8
1768.16	661.68
1768.51	671.76
1768.85	693.48
1769.2	697.96
1769.55	704.72
1769.9	716.76
1770.25	725.28
1770.59	739.6
1770.94	745.52
1771.29	748.8
1771.64	769.28
1771.98	777.04
1772.33	776.16
1772.68	797.16
1773.02	810.2
1773.37	814.76
1773.72	836.96
1774.07	856.2
1774.41	866.44
1774.76	892.96
1775.11	900.36
1775.46	897.32
1775.8	902.72
1776.15	896.16
1776.5	884.12
1776.84	903.24
1777.19	908.68
1777.54	929.04
1777.89	955.04
1778.23	980.4
1778.58	994.96
1778.93	1010.88
1779.27	1019.04
1779.62	1033.64
1779.97	1035.16
1780.31	1039.36
1780.66	1039.92
1781.01	1028.32
1781.35	1032.04
1781.7	1039.36
1782.05	1045.44
1782.39	1066.4
1782.74	1077.64
1783.09	1078.84
1783.43	1098.72
1783.78	1109.24
1784.13	1131.76
1784.47	1156.2
1784.82	1167.16
1785.17	1153.72
1785.51	1140.56
1785.86	1104.84
1786.21	1111.36
1786.55	1121.84
1786.9	1150.12
1787.25	1177.92
1787.59	1221.88
1787.94	1231.64
1788.29	1239.64
1788.63	1231.72
1788.98	1239.76
1789.32	1246.4
1789.67	1248.08
1790.02	1220.48
1790.36	1179.56
1790.71	1145.6
1791.06	1130.76
1791.4	1125.92
1791.75	1155.64
1792.09	1198.04
1792.44	1238.32
1792.79	1270.12
1793.13	1296.68
1793.48	1348.48
1793.82	1391.16
1794.17	1398.6
1794.52	1435.28
1794.86	1431.96
1795.21	1406.08
1795.55	1410.12
1795.9	1335.64
1796.24	1189.6
1796.59	1188.48
1796.94	1205.96
1797.28	1224.8
1797.63	1317.92
1797.97	1421.72
1798.32	1424.8
1798.66	1394.88
1799.01	1370.36
1799.36	1370.8
1799.7	1360.96
1800.05	1370.24
1800.39	1371.2
1800.74	1326
1801.08	1325.04
1801.43	1365.28
1801.77	1364.88
1802.12	1356.36
1802.46	1394.2
1802.81	1418.92
1803.15	1417.56
1803.5	1431.2
1803.85	1465.12
1804.19	1417.4
1804.54	1358
1804.88	1338.04
1805.23	1276.4
1805.57	1201.32
1805.92	1217.4
1806.26	1249.44
1806.61	1217.08
1806.95	1183.08
1807.3	1233.32
1807.64	1288.8
1807.99	1306.96
1808.33	1366.16
1808.68	1419.92
1809.02	1380.68
1809.37	1334.24
1809.71	1319.92
1810.06	1313.36
1810.4	1333.84
1810.75	1326.08
1811.09	1269.52
1811.43	1233.16
1811.78	1209.88
1812.12	1239.68
1812.47	1340.72
1812.81	1436.76
1813.16	1485.36
1813.5	1524.32
1813.85	1522.76
1814.19	1519.28
1814.54	1542.04
1814.88	1533.16
1815.23	1501.92
1815.57	1477.12
1815.91	1377.08
1816.26	1209.72
1816.6	1128.96
1816.95	1090.88
1817.29	1004.48
1817.64	991.96
1817.98	1065.04
1818.32	1123
1818.67	1185.32
1819.01	1275.48
1819.36	1360.96
1819.7	1407.68
1820.05	1393.56
1820.39	1370.04
1820.73	1388.92
1821.08	1393.64
1821.42	1402.96
1821.77	1461.92
1822.11	1442.56
1822.45	1355.68
1822.8	1305.16
1823.14	1278.04
1823.49	1135
1823.83	1073.24
1824.17	1130.48
1824.52	1166.08
1824.86	1204.88
1825.2	1322
1825.55	1394.16
1825.89	1390.56
1826.24	1337.72
1826.58	1250.32
1826.92	1216.6
1827.27	1195.32
1827.61	1181.44
1827.95	1243.04
1828.3	1316.48
1828.64	1323.24
1828.98	1331.68
1829.33	1287.68
1829.67	1159.76
1830.02	1103.8
1830.36	1063.28
1830.7	1011.92
1831.05	1059.48
1831.39	1164.28
1831.73	1200.64
1832.08	1253.24
1832.42	1293.92
1832.76	1279.84
1833.1	1265.48
1833.45	1272.92
1833.79	1231.4
1834.13	1184.72
1834.48	1162.32
1834.82	1135.56
1835.16	1116.64
1835.51	1130.36
1835.85	1165.68
1836.19	1188.36
1836.54	1210.48
1836.88	1191.68
1837.22	1145.52
1837.56	1071.48
1837.91	952.72
1838.25	845.4
1838.59	817.8
1838.94	836.4
1839.28	878.56
1839.62	936.24
1839.96	983.52
1840.31	977.92
1840.65	958.8
1840.99	875.28
1841.34	801.04
1841.68	780.16
1842.02	769.04
1842.36	764.88
1842.71	847.4
1843.05	903.76
1843.39	847.8
1843.73	794.44
1844.08	759.96
1844.42	709.84
1844.76	733.84
1845.1	825.04
1845.45	865.48
1845.79	860.28
1846.13	874.16
1846.47	874.4
1846.81	854.84
1847.16	840.28
1847.5	803.76
1847.84	785.68
1848.18	782.4
1848.53	778.24
1848.87	803.44
1849.21	872.2
1849.55	901
1849.89	893.96
1850.24	899.04
1850.58	896.32
1850.92	881.52
1851.26	870.32
1851.6	857.48
1851.95	847.6
1852.29	848.08
1852.63	847.2
1852.97	846.72
1853.31	849.4
1853.66	847.12
1854	828.2
1854.34	787.36
1854.68	745.92
1855.02	730.96
1855.36	733.84
1855.71	728.56
1856.05	749
1856.39	777.2
1856.73	774.76
1857.07	743.48
1857.41	726.2
1857.76	729.52
1858.1	718.88
1858.44	717.96
1858.78	727.08
1859.12	732.92
1859.46	733.28
1859.8	720.2
1860.15	703.8
1860.49	646.28
1860.83	612.76
1861.17	589.76
1861.51	585
1861.85	582.96
1862.19	604.48
1862.53	595.48
1862.88	580.08
1863.22	575.16
1863.56	568.52
1863.9	565.68
1864.24	577.88
1864.58	581.4
1864.92	575.56
1865.26	568.48
1865.6	577.32
1865.94	580.68
1866.29	574.52
1866.63	566.92
1866.97	560.28
1867.31	546.2
1867.65	520.36
1867.99	502.04
1868.33	493
1868.67	472.24
1869.01	451.4
1869.35	426.36
1869.69	405.6
1870.03	384.08
1870.37	373.96
1870.72	379.36
1871.06	408.24
1871.4	427.96
1871.74	438.68
1872.08	441.44
1872.42	418.96
1872.76	394.96
1873.1	383.44
1873.44	378.76
1873.78	379.92
1874.12	392.84
1874.46	390.6
1874.8	366.72
1875.14	339.8
1875.48	327.48
1875.82	311.8
1876.16	302.96
1876.5	308.2
1876.84	321.88
1877.18	326.56
1877.52	336.44
1877.86	353.08
1878.2	357
1878.54	354.32
1878.88	348.44
1879.22	345.92
1879.56	337.8
1879.9	331.56
1880.24	325.28
1880.58	310.16
1880.92	296.76
1881.26	289.6
1881.6	293
1881.94	290.84
1882.28	293.04
1882.62	283.32
1882.96	263.04
1883.3	244.8
1883.64	235.72
1883.98	231.44
1884.32	241.48
1884.66	261.64
1885	270.88
1885.34	269.32
1885.68	261.08
1886.02	252.96
1886.36	245.36
1886.7	242.36
1887.04	243.52
1887.38	247.52
1887.72	249.36
1888.06	247.28
1888.39	243.32
1888.73	239.56
1889.07	229.08
1889.41	210.2
1889.75	200.28
1890.09	181.68
1890.43	157.32
1890.77	155.68
1891.11	166.08
1891.45	169.84
1891.79	181.04
1892.13	200.84
1892.47	204.36
1892.8	202.44
1893.14	199.88
1893.48	196.4
1893.82	181.52
1894.16	173.8
1894.5	168.28
1894.84	165.52
1895.18	164.52
1895.52	173.6
1895.86	173.64
1896.19	173.32
1896.53	169.4
1896.87	162.56
1897.21	153.72
1897.55	152.44
1897.89	150.32
1898.23	143.4
1898.57	140.04
1898.9	140.48
1899.24	138.68
1899.58	136.2
1899.92	138.48
1900.26	139.64
1900.6	139.8
1900.94	136.36
1901.27	134.16
1901.61	131.4
1901.95	130.8
1902.29	127.2
1902.63	126.04
1902.97	123.96
1903.3	124.08
1903.64	120.24
1903.98	115.96
1904.32	112.76
1904.66	110.4
1905	107.68
1905.33	108.88
1905.67	109.56
1906.01	107.68
1906.35	103.6
1906.69	99.96
1907.02	94.4
1907.36	91.96
1907.7	91.52
1908.04	92.16
1908.38	92.96
1908.71	95.04
1909.05	94.64
1909.39	92.2
1909.73	88.48
1910.07	84.96
1910.4	83
1910.74	81.56
1911.08	80.68
1911.42	81.88
1911.76	81.24
1912.09	78
1912.43	76.28
1912.77	74.56
1913.11	71
1913.44	71.6
1913.78	71.44
1914.12	69.96
1914.46	68.92
1914.79	67.04
1915.13	63.84
1915.47	62
1915.81	60.84
1916.14	60.2
1916.48	61.56
1916.82	62.12
1917.16	60.8
1917.49	60.2
1917.83	59.32
1918.17	57.08
1918.5	55.32
1918.84	56.68
1919.18	55.64
1919.52	55.08
1919.85	55.52
1920.19	55.6
1920.53	53.96
1920.87	52.32
1921.2	52.04
1921.54	50.84
1921.88	49.44
1922.21	50.68
1922.55	50.8
1922.89	49.36
1923.22	50.44
1923.56	49.88
1923.9	47.28
1924.23	47.36
1924.57	46.84
1924.91	46.24
1925.25	44.68
1925.58	46.92
1925.92	45.2
1926.26	44.24
1926.59	42.64
1926.93	43.6
1927.27	41.68
1927.6	41.04
1927.94	40.44
1928.28	40.4
1928.61	39.2
1928.95	38.16
1929.29	39.72
1929.62	39.96
1929.96	40.32
1930.29	40.8
1930.63	40.24
1930.97	39.08
1931.3	39.68
1931.64	38.44
1931.98	36.36
1932.31	35.08
1932.65	34.52
1932.99	33.92
1933.32	33.88
1933.66	34.88
1933.99	34.84
1934.33	35.48
1934.67	35.28
1935	34.56
1935.34	36.24
1935.67	37.36
1936.01	36.8
1936.35	36.2
1936.68	36.96
1937.02	34.08
1937.35	33.64
1937.69	34.12
1938.03	34.64
1938.36	32.84
1938.7	33.52
1939.03	32.04
1939.37	30.92
1939.7	30.12
1940.04	30.72
1940.38	29.6
1940.71	31.8
1941.05	31.36
1941.38	30.6
1941.72	31.52
1942.05	33
1942.39	31.44
1942.73	32.08
1943.06	31.84
1943.4	30.4
1943.73	28.84
1944.07	28.16
1944.4	27.16
1944.74	27.08
1945.07	28.6
1945.41	28.28
1945.74	27.92
1946.08	28.64
1946.42	27.68
1946.75	26.2
1947.09	25.64
1947.42	26.56
1947.76	24.76
1948.09	25.84
1948.43	27.28
1948.76	27.88
1949.1	27.36
1949.43	28.52
1949.77	28.48
1950.1	27.24
1950.44	27.96
1950.77	27.08
1951.11	26.32
1951.44	26.48
1951.78	26.08
1952.11	25.16
1952.45	25.08
1952.78	25.76
1953.12	25.72
1953.45	25.92
1953.79	24.08
1954.12	23.52
1954.46	21.16
1954.79	19.32
1955.12	18.56
1955.46	19.32
1955.79	19.2
1956.13	20.08
1956.46	20.36
1956.8	20.4
1957.13	20.76
1957.47	20.76
1957.8	19.68
1958.14	19.08
1958.47	17.56
1958.8	16.48
1959.14	14.96
1959.47	13.68
1959.81	13.72
1960.14	13.24
1960.48	13.6
1960.81	12.88
1961.14	13.6
1961.48	12.48
1961.81	12.6
1962.15	11.56
1962.48	12.52
1962.82	12
1963.15	12.16
1963.48	11.24
1963.82	11.28
1964.15	9.56
1964.49	9.2
1964.82	9.52
1965.15	8.96
1965.49	7.88
1965.82	8.52
1966.16	8.36
1966.49	6.76
1966.82	7.28
1967.16	7.12
1967.49	6.68
1967.83	6.2
1968.16	6.28
1968.49	5.44
1968.83	6.24
1969.16	5.88
1969.49	5.36
1969.83	5.24
1970.16	4.84
1970.49	3.92
1970.83	3.32
1971.16	3.44
1971.5	2.12
1971.83	2.92
1972.16	3.04
1972.5	3.24
1972.83	2.96
1973.16	3.32
1973.5	2.64
1973.83	2.08
1974.16	2.04
1974.5	2.12
1974.83	2.4
1975.16	1.84
1975.5	1.36
1975.83	1.04
1976.16	1.64
1976.49	1.56
1976.83	1.52
1977.16	1.96
1977.49	2.24
1977.83	1.36
1978.16	1.28
1978.49	1.6
1978.83	1.76
1979.16	1.92
1979.49	1.84
1979.83	1.8
1980.16	1.36
1980.49	0.96
1980.82	0.8
1981.16	0.84
1981.49	0.84
1981.82	1.08
1982.15	0.96
1982.49	0.76
1982.82	0.76
1983.15	0.84
1983.49	0.96
1983.82	1.04
1984.15	1.16
1984.48	1.2
1984.82	0.92
1985.15	1.04
1985.48	0.84
1985.81	0.68
1986.15	0.68
1986.48	1.04
1986.81	1.36
1987.14	1.36
1987.48	1.32
1987.81	2.04
1988.14	1.72
1988.47	1.36
1988.81	1.8
1989.14	2.48
1989.47	2
1989.8	2.04
1990.13	2.08
1990.47	2.4
1990.8	2.8
1991.13	2.6
1991.46	2.6
1991.79	2.24
1992.13	1.2
1992.46	0.92
1992.79	1.44
1993.12	2.56
1993.45	2.4
1993.79	3.44
1994.12	3.08
1994.45	3.24
1994.78	2.72
1995.11	5.08
1995.45	5.72
1995.78	6.12
1996.11	6.12
1996.44	6.68
1996.77	5.56
1997.1	4.92
1997.44	5.16
1997.77	5.68
1998.1	5.56
1998.43	6.44
1998.76	6.6
1999.09	8.36
1999.43	8.52
1999.76	10.24
2000.09	9.68
2000.42	10.12
2000.75	7.36
2001.08	7.92
2001.41	6.6
2001.75	7.08
2002.08	7.04
2002.41	9.88
2002.74	8.88
2003.07	9.72
2003.4	10.68
2003.73	11.64
2004.06	11.88
2004.4	13.12
2004.73	13.44
2005.06	12.84
2005.39	13.6
2005.72	12.48
2006.05	12.68
2006.38	13.16
2006.71	12.84
2007.04	12.44
2007.37	13.96
2007.71	15.2
2008.04	14.8
2008.37	14.88
2008.7	15.56
2009.03	14.8
2009.36	14.36
2009.69	12.76
2010.02	14.52
2010.35	15.08
2010.68	14.52
2011.01	14.64
2011.34	17.52
2011.67	16.8
2012.01	16.36
2012.34	18.28
2012.67	17.32
2013	15.96
2013.33	15.92
2013.66	14.96
2013.99	13.6
2014.32	12.96
2014.65	12
2014.98	12.48
2015.31	12.56
2015.64	13.76
2015.97	14.8
2016.3	16.2
2016.63	15.08
2016.96	15.16
2017.29	13.72
2017.62	13.8
2017.95	13.76
2018.28	13.24
2018.61	11.92
2018.94	13.8
2019.27	13.64
2019.6	12.16
2019.93	13
2020.26	13.72
2020.59	12.96
2020.92	13.56
2021.25	13.68
2021.58	13.52
2021.91	13.08
2022.24	11.32
2022.57	9.12
2022.9	9.64
2023.23	8.92
2023.56	9.72
2023.89	8.68
2024.22	9.4
2024.55	8.48
2024.88	8.04
2025.21	6.68
2025.54	7.4
2025.87	7.44
2026.2	6.6
2026.53	6.96
2026.86	7.76
2027.19	7.2
2027.52	6
2027.85	7.32
2028.18	6.8
2028.51	6.4
2028.84	5.88
2029.16	6.36
2029.49	5.6
2029.82	4.68
2030.15	4.64
2030.48	4.36
2030.81	4.36
2031.14	4.88
2031.47	5.12
2031.8	3.84
2032.13	4.4
2032.46	4.08
2032.79	2.88
2033.12	3
2033.44	3.16
2033.77	3.4
2034.1	3.04
2034.43	2.96
2034.76	2.6
2035.09	2.6
2035.42	1.96
2035.75	1.44
2036.08	1.6
2036.41	1.64
2036.73	1.64
2037.06	1.36
2037.39	2.12
2037.72	1.8
2038.05	1.64
2038.38	2
2038.71	1.88
2039.04	0.84
2039.36	1.12
2039.69	1.12
2040.02	0.12
2040.35	1.16
2040.68	2.04
2041.01	1.84
2041.34	1.72
2041.66	2.2
2041.99	1.64
2042.32	1.36
2042.65	1.28
2042.98	1.76
2043.31	1.92
2043.63	2.04
2043.96	2
2044.29	2
2044.62	1.32
2044.95	1.6
2045.28	1.24
2045.6	1.28
2045.93	1.12
2046.26	1.72
2046.59	1.24
2046.92	1.36
2047.24	1.08
2047.57	1.36
2047.9	1.28
2048.23	1.32
2048.56	1.36
2048.88	2.72
2049.21	3.16
2049.54	2.96
2049.87	3.88
2050.2	4.16
2050.52	3.44
2050.85	2.8
2051.18	2.64
2051.51	1.72
2051.83	1.28
2052.16	0.84
2052.49	0.76
2052.82	0.88
2053.15	1.4
2053.47	1.64
2053.8	1.68
2054.13	2.36
2054.46	2.08
2054.78	2.28
2055.11	2.08
2055.44	1.76
2055.77	1.84
2056.09	2.24
2056.42	1.44
2056.75	1.76
2057.08	2.68
2057.4	2.24
2057.73	2.4
2058.06	3.28
2058.38	3.12
2058.71	3.28
2059.04	3.12
2059.37	2.92
2059.69	2.32
2060.02	2.4
2060.35	1.6
2060.67	1.6
2061	1.6
2061.33	1.32
2061.66	1.24
2061.98	1.8
2062.31	2.12
2062.64	2.2
2062.96	2.88
2063.29	2.88
2063.62	2.32
2063.94	2.92
2064.27	3
2064.6	2.16
2064.92	2.6
2065.25	2.36
2065.58	1.96
2065.91	2.44
2066.23	3.16
2066.56	2.44
2066.89	3.28
2067.21	2.72
2067.54	2.12
2067.87	2.08
2068.19	2.92
2068.52	2.84
2068.84	2.84
2069.17	2.44
2069.5	2.36
2069.82	1.76
2070.15	1.2
2070.48	1.92
2070.8	2.32
2071.13	2.16
2071.46	1.96
2071.78	2.12
2072.11	1.48
2072.43	1.4
2072.76	1.6
2073.09	1.6
2073.41	1.84
2073.74	1.96
2074.07	1.76
2074.39	1.84
2074.72	1.84
2075.04	1.6
2075.37	1.8
2075.7	2.08
2076.02	1.88
2076.35	1.68
2076.67	1.88
2077	1.48
2077.33	1.68
2077.65	1.48
2077.98	2.08
2078.3	1.76
2078.63	1.88
2078.95	1.76
2079.28	1.8
2079.61	0.72
2079.93	0.96
2080.26	1.4
2080.58	0.96
2080.91	1.08
2081.23	1.88
2081.56	2.4
2081.89	1.96
2082.21	2
2082.54	1.92
2082.86	1.72
2083.19	0.8
2083.51	0.76
2083.84	1.76
2084.16	1.6
2084.49	1.6
2084.81	1.56
2085.14	2.24
2085.46	1.24
2085.79	1.72
2086.12	2.04
2086.44	2
2086.77	1.56
2087.09	1.72
2087.42	1.36
2087.74	1.2
2088.07	1.76
2088.39	1.64
2088.72	1.52
2089.04	1.32
2089.37	1.28
2089.69	1.16
2090.02	1
2090.34	1.2
2090.67	1.32
2090.99	-0.92
2091.32	-1.12
2091.64	-1.12
2091.97	-1.2
2092.29	-1.2
2092.62	1.04
2092.94	1.6
2093.26	1.76
2093.59	1.68
2093.91	0.48
2094.24	0.72
2094.56	-0.08
2094.89	-0.2
2095.21	-0.12
2095.54	1.12
2095.86	1.2
2096.19	1.2
2096.51	1.24
2096.84	1
2097.16	1
2097.48	0.76
2097.81	1
2098.13	1.08
2098.46	0.76
2098.78	0.68
2099.11	1.24
2099.43	1.12
2099.75	0.8
2100.08	1.28
2100.4	1.28
2100.73	0.52
2101.05	0.8
2101.38	0.84
2101.7	0.68
2102.02	0.56
2102.35	0.72
2102.67	0.32
2103	0.28
2103.32	0.36
2103.64	0.44
2103.97	0.16
2104.29	0.68
2104.62	0.68
2104.94	0.92
2105.26	0.36
2105.59	0.56
2105.91	0.04
2106.23	0.2
2106.56	0.2
2106.88	0.8
2107.21	0.64
2107.53	1.04
2107.85	0.88
2108.18	0.92
2108.5	0.88
2108.82	1
2109.15	0.6
2109.47	1.16
2109.79	1
2110.12	1.12
2110.44	1.24
2110.76	1.48
2111.09	1
2111.41	1.12
2111.73	0.96
2112.06	0.68
2112.38	0.88
2112.7	0.56
2113.03	0.4
2113.35	0.68
2113.67	0.88
2114	0.44
2114.32	0.84
2114.64	0.8
2114.97	0.88
2115.29	0.68
2115.61	1.36
2115.94	1.6
2116.26	2
2116.58	2.72
2116.91	2.12
2117.23	1.48
2117.55	1.08
2117.87	0.6
2118.2	-0.52
2118.52	0.2
2118.84	0.16
2119.17	0.8
2119.49	1
2119.81	1
2120.13	0.96
2120.46	0.96
2120.78	0.04
2121.1	0.24
2121.42	0.24
2121.75	0.72
2122.07	0.84
2122.39	1.12
2122.72	0.76
2123.04	0.8
2123.36	0.72
2123.68	0.76
2124.01	1.04
2124.33	0.96
2124.65	0.96
2124.97	0.84
2125.29	1.24
2125.62	1.32
2125.94	1.36
2126.26	1.4
2126.58	1.08
2126.91	-0.48
2127.23	-0.56
2127.55	-0.44
2127.87	-0.52
2128.2	0.2
2128.52	1.64
2128.84	1.36
2129.16	1.32
2129.48	1.4
2129.81	0.64
2130.13	0.24
2130.45	0.48
2130.77	0.92
2131.09	0.84
2131.42	1
2131.74	0.96
2132.06	1.04
2132.38	0.56
2132.7	0.64
2133.02	0.84
2133.35	0.96
2133.67	0.8
2133.99	0.72
2134.31	0.2
2134.63	-0.12
2134.96	0.08
2135.28	-3.44166e-17
2135.6	0.04
2135.92	0.48
2136.24	0.48
2136.56	0.2
2136.88	0.28
2137.21	0.28
2137.53	0.28
2137.85	0.64
2138.17	0.08
2138.49	-0.08
2138.81	-0.12
2139.13	-2.10945e-17
2139.46	-0.08
2139.78	1.28
2140.1	1.36
2140.42	1.36
2140.74	1.24
2141.06	0.92
2141.38	0.24
2141.7	0.16
2142.03	0.2
2142.35	0.28
2142.67	0.64
2142.99	0.48
2143.31	0.72
2143.63	1.04
2143.95	1.12
2144.27	1.2
2144.59	1.2
2144.91	0.88
2145.24	0.6
2145.56	0.6
2145.88	0.32
2146.2	0.36
2146.52	0.56
2146.84	0.56
2147.16	0.4
2147.48	0.32
2147.8	0.44
2148.12	0.52
2148.44	0.44
2148.76	0.56
2149.08	1.28
2149.41	1.28
2149.73	1.08
2150.05	1.36
2150.37	1.48
2150.69	0.76
2151.01	1.08
2151.33	1.52
2151.65	1.28
2151.97	1.04
2152.29	1.08
2152.61	0.6
2152.93	0.24
2153.25	0.2
2153.57	0.2
2153.89	0.08
2154.21	0.08
2154.53	0.08
2154.85	0.12
2155.17	0.16
2155.49	-0.04
2155.81	-0.04
2156.13	0.32
2156.45	0.44
2156.77	0.6
2157.09	1
2157.41	1.6
2157.73	1.16
2158.05	1.16
2158.37	0.96
2158.69	1.16
2159.01	0.56
2159.33	0.64
2159.65	0.68
2159.97	0.68
2160.29	0.4
2160.61	0.4
2160.93	0.64
2161.25	0.44
2161.57	1.08
2161.89	1.16
2162.21	1.24
2162.53	0.96
2162.85	0.36
2163.17	-0.28
2163.49	-0.24
2163.81	-0.2
2164.13	-0.16
2164.45	-0.12
2164.77	0.08
2165.08	-0.08
2165.4	-0.04
2165.72	-0.08
2166.04	0.56
2166.36	0.56
2166.68	0.48
2167	0.84
2167.32	0.84
2167.64	0.8
2167.96	0.6
2168.28	0.72
2168.6	0.64
2168.92	0.68
2169.24	0.64
2169.55	0.76
2169.87	0.64
2170.19	0.24
2170.51	0.16
2170.83	0.16
2171.15	0.16
2171.47	0.36
2171.79	0.32
2172.11	0.32
2172.43	0.32
2172.74	0.2
2173.06	0.08
2173.38	0.6
2173.7	0.6
2174.02	0.64
2174.34	0.64
2174.66	0.56
2174.98	0.08
2175.29	0.28
2175.61	0.24
2175.93	0.64
2176.25	1.04
2176.57	1.08
2176.89	1
2177.21	1
2177.52	0.92
2177.84	0.56
2178.16	0.56
2178.48	0.64
2178.8	0.88
2179.12	0.6
2179.43	0.56
2179.75	-0.48
2180.07	-0.64
2180.39	-0.88
2180.71	-0.56
2181.03	-0.28
2181.34	0.68
2181.66	1.04
2181.98	1.4
2182.3	1.2
2182.62	0.96
2182.93	0.68
2183.25	0.32
2183.57	0.12
2183.89	0.08
2184.21	0.12
2184.52	0.4
2184.84	0.36
2185.16	0.2
2185.48	0.36
2185.8	0.28
2186.11	0.28
2186.43	0.44
2186.75	0.6
2187.07	0.24
2187.39	-0.52
2187.7	-0.52
2188.02	-1.24
2188.34	-1.04
2188.66	-0.72
2188.97	0.04
2189.29	0.24
2189.61	0.8
2189.93	0.44
2190.24	0.2
2190.56	0.4
2190.88	0.2
2191.2	0.32
2191.51	0.56
2191.83	0.56
2192.15	0.48
2192.47	0.48
2192.78	0.36
2193.1	0.12
2193.42	0.52
2193.74	0.64
2194.05	0.8
2194.37	0.8
2194.69	0.92
2195	0.16
2195.32	-0.08
2195.64	-0.24
2195.96	0.04
2196.27	-3.44166e-17
2196.59	-0.24
2196.91	0.08
2197.22	0.36
2197.54	0.28
2197.86	0.28
2198.18	1.12
2198.49	0.88
2198.81	0.84
2199.13	0.68
2199.44	0.68
2199.76	0.6
2200.08	0.52
2200.39	0.68
2200.71	0.84
2201.03	0.8
2201.34	0.88
2201.66	0.96
2201.98	0.56
2202.29	0.44
2202.61	0.4
2202.93	0.24
2203.24	0.16
2203.56	0.6
2203.88	0.76
2204.19	0.76
2204.51	0.68
2204.83	0.68
2205.14	0.48
2205.46	0.32
2205.78	0.32
2206.09	0.32
2206.41	0.32
2206.72	0.04
2207.04	0.32
2207.36	0.04
2207.67	0.4
2207.99	0.4
2208.31	0.64
2208.62	0.32
2208.94	0.6
2209.25	0.24
2209.57	0.28
2209.89	0.16
2210.2	0.12
2210.52	0.16
2210.83	0.28
2211.15	0.44
2211.47	0.6
2211.78	0.8
2212.1	0.4
2212.41	0.68
2212.73	0.6
2213.05	0.52
2213.36	0.44
2213.68	0.8
2213.99	0.64
2214.31	0.52
2214.62	0.4
2214.94	0.32
2215.26	0.32
2215.57	0.08
2215.89	0.36
2216.2	0.72
2216.52	0.72
2216.83	0.76
2217.15	0.84
2217.46	0.56
2217.78	0.16
2218.1	-0.08
2218.41	-0.12
2218.73	-0.08
2219.04	-0.08
2219.36	0.2
2219.67	0.64
2219.99	0.64
2220.3	0.6
2220.62	0.6
2220.93	0.44
2221.25	0.32
2221.56	0.32
2221.88	0.24
2222.19	0.28
2222.51	0.44
2222.82	-1.08
2223.14	-1.08
2223.45	-1
2223.77	-1.04
2224.08	-0.96
2224.4	0.52
2224.71	1
2225.03	1.16
2225.34	1.72
2225.66	-0.04
2225.97	-0.12
2226.29	-0.4
2226.6	-0.6
2226.92	-1
2227.23	0.4
2227.55	0.4
2227.86	0.36
2228.18	0.36
2228.49	0.24
2228.81	0.4
2229.12	0.4
2229.44	0.24
2229.75	0.32
2230.07	0.36
2230.38	0.28
2230.69	0.56
2231.01	0.56
2231.32	0.8
2231.64	0.72
2231.95	0.72
2232.27	0.48
2232.58	0.56
2232.9	0.2
2233.21	0.2
2233.52	0.12
2233.84	0.12
2234.15	0.32
2234.47	0.32
2234.78	0.32
2235.1	0.36
2235.41	0.4
2235.72	0.12
2236.04	0.12
2236.35	0.16
2236.67	-0.48
2236.98	-0.28
2237.29	-0.2
2237.61	-0.2
2237.92	-0.24
2238.24	0.4
2238.55	0.28
2238.86	0.48
2239.18	0.48
2239.49	-0.32
2239.8	-0.36
2240.12	0.08
2240.43	0.08
2240.75	0.24
2241.06	1.04
2241.37	1.16
2241.69	0.56
2242	0.6
2242.31	0.84
2242.63	0.84
2242.94	1.08
2243.26	0.56
2243.57	0.24
2243.88	-0.16
2244.2	-0.12
2244.51	-0.48
2244.82	0.08
2245.14	0.08
2245.45	0.2
2245.76	0.16
2246.08	0.16
2246.39	0.12
2246.7	0.12
2247.02	0
2247.33	0.12
2247.64	0.2
2247.96	0.28
2248.27	0.28
2248.58	-0.68
2248.9	-0.8
2249.21	-0.6
2249.52	-0.52
2249.83	-0.48
2250.15	0.64
2250.46	0.68
2250.77	0.56
2251.09	0.68
2251.4	1.12
2251.71	1.16
2252.03	1.12
2252.34	1.44
2252.65	1.28
2252.96	0.8
2253.28	0.6
2253.59	0.6
2253.9	0.24
2254.21	0.36
2254.53	0.8
2254.84	0.92
2255.15	1.16
2255.47	1.16
2255.78	0.92
2256.09	0.72
2256.4	0.8
2256.72	0.56
2257.03	0.48
2257.34	0.8
2257.65	0.56
2257.97	0.56
2258.28	0.64
2258.59	0.88
2258.9	0.92
2259.22	0.92
2259.53	0.84
2259.84	0.76
2260.15	0.76
2260.46	0.44
2260.78	0.44
2261.09	0.32
2261.4	0.32
2261.71	0.04
2262.03	0
2262.34	0.2
2262.65	0.2
2262.96	0.2
2263.27	0.32
2263.59	0.32
2263.9	0.12
2264.21	0.12
2264.52	0.12
2264.83	0
2265.15	0.16
2265.46	0.2
2265.77	0.24
2266.08	0.32
2266.39	0.44
2266.7	0.56
2267.02	0.76
2267.33	0.4
2267.64	0.48
2267.95	0.6
2268.26	0.32
2268.57	0.08
2268.89	0.4
2269.2	0.56
2269.51	0.68
2269.82	1.04
2270.13	1.04
2270.44	1.2
2270.76	0.56
2271.07	0.56
2271.38	-0.4
2271.69	-0.32
2272	-0.24
2272.31	-0.08
2272.62	-1.16
2272.93	-0.56
2273.25	-0.4
2273.56	-0.2
2273.87	-0.04
2274.18	0.72
2274.49	0.88
2274.8	0.76
2275.11	0.52
2275.42	0.52
2275.74	0.76
2276.05	0.64
2276.36	0.52
2276.67	0.4
2276.98	0.4
2277.29	0.36
2277.6	0.32
2277.91	0.68
2278.22	0.48
2278.53	0.48
2278.85	0.28
2279.16	-0.72
2279.47	-0.88
2279.78	-0.76
2280.09	-0.6
2280.4	-0.48
2280.71	0.52
2281.02	0.32
2281.33	0.32
2281.64	0.52
2281.95	0.36
2282.26	0.56
2282.57	0.68
2282.88	0.76
2283.19	0.6
2283.5	0.72
2283.82	0.52
2284.13	0.4
2284.44	0.76
2284.75	-0.04
2285.06	0.08
2285.37	0.08
2285.68	0.4
2285.99	-0.04
2286.3	1.04
2286.61	0.8
2286.92	0.84
2287.23	0.52
2287.54	0.52
2287.85	0.44
2288.16	1.04
2288.47	1
2288.78	1
2289.09	1
2289.4	0.96
2289.71	0.36
2290.02	0.44
2290.33	0.68
2290.64	0.76
2290.95	0.2
2291.26	0.2
2291.57	0.64
2291.88	5.55112e-17
2292.19	-0.08
2292.5	0.12
2292.81	0.12
2293.12	-0.4
2293.43	0
2293.74	0
2294.05	0
2294.36	0
2294.67	0
2294.98	0
2295.29	0
2295.6	0
2295.91	0
2296.21	0
2296.52	0
2296.83	0
2297.14	0
2297.45	0
2297.76	0
2298.07	0
2298.38	0
2298.69	0
2299	0
2299.31	0
2299.62	0
2299.93	0
2300.24	0
2300.55	0
2300.85	0
2301.16	0
2301.47	0
2301.78	0
2302.09	0
2302.4	0
2302.71	0
2303.02	0
2303.33	0
2303.64	0
2303.94	0
2304.25	0
2304.56	0
2304.87	0
2305.18	0
2305.49	0
2305.8	0
2306.11	0
2306.42	0
2306.72	0
2307.03	0
2307.34	0
2307.65	0
2307.96	0
2308.27	0
2308.58	0
2308.88	0
2309.19	0
2309.5	0
2309.81	0
2310.12	0
2310.43	0
2310.74	0
2311.04	0
2311.35	0
2311.66	0
2311.97	0
2312.28	0
2312.59	0
2312.89	0
2313.2	0
2313.51	0
2313.82	0
2314.13	0
2314.43	0
2314.74	0
2315.05	0
2315.36	0
2315.67	0
2315.97	0
2316.28	0
2316.59	0
2316.9	0
2317.21	0
2317.51	0
2317.82	0
2318.13	0
2318.44	0
2318.75	0
2319.05	0
2319.36	0
2319.67	0
2319.98	0
2320.28	0
2320.59	0
2320.9	0
2321.21	0
2321.51	0
2321.82	0
2322.13	0
2322.44	0
2322.74	0
2323.05	0
2323.36	0
2323.67	0
2323.97	0
2324.28	0
2324.59	0
2324.9	0
2325.2	0
2325.51	0
2325.82	0
2326.13	0
2326.43	0
2326.74	0
2327.05	0
2327.35	0
2327.66	0
2327.97	0
2328.27	0
2328.58	0
2328.89	0
2329.2	0
2329.5	0
2329.81	0
2330.12	0
2330.42	0
2330.73	0
2331.04	0
2331.34	0
2331.65	0
2331.96	0
2332.26	0
2332.57	0
2332.88	0
2333.18	0
2333.49	0
2333.8	0
2334.1	0
2334.41	0
2334.72	0
2335.02	0
2335.33	0
2335.64	0
2335.94	0
2336.25	0
2336.56	0
2336.86	0
2337.17	0
2337.48	0
2337.78	0
2338.09	0
2338.39	0
2338.7	0
2339.01	0
2339.31	0
2339.62	0
2339.93	0
2340.23	0
2340.54	0
2340.84	0
2341.15	0
2341.46	0
2341.76	0
2342.07	0
2342.37	0
2342.68	0
2342.99	0
2343.29	0
2343.6	0
2343.9	0
2344.21	0
2344.51	0
2344.82	0
2345.13	0
2345.43	0
2345.74	0
2346.04	0
2346.35	0
2346.65	0
2346.96	0
2347.27	0
2347.57	0
2347.88	0
2348.18	0
2348.49	0
2348.79	0
2349.1	0
2349.4	0
2349.71	0
2350.01	0
2350.32	0
2350.63	0
2350.93	0
2351.24	0
2351.54	0
2351.85	0
2352.15	0
2352.46	0
2352.76	0
2353.07	0
2353.37	0
2353.68	0
2353.98	0
2354.29	0
2354.59	0
2354.9	0
2355.2	0
2355.51	0
2355.81	0
2356.12	0
2356.42	0
2356.73	0
2357.03	0
2357.34	0
2357.64	0
2357.95	0
2358.25	0
2358.55	0
2358.86	0
2359.16	0
2359.47	0
2359.77	0
2360.08	0
2360.38	0
2360.69	0
2360.99	0
2361.3	0
2361.6	0
2361.9	0
2362.21	0
2362.51	0
2362.82	0
2363.12	0
2363.43	0
2363.73	0
2364.04	0
2364.34	0
2364.64	0
2364.95	0
2365.25	0
2365.56	0
2365.86	0
2366.16	0
2366.47	0
2366.77	0
2367.08	0
2367.38	0
2367.68	0
2367.99	0
2368.29	0
2368.6	0
2368.9	0
2369.2	0
2369.51	0
2369.81	0
2370.12	0
2370.42	0
2370.72	0
2371.03	0
2371.33	0
2371.63	0
2371.94	0
2372.24	0
2372.55	0
2372.85	0
2373.15	0
2373.46	0
2373.76	0
2374.06	0
2374.37	0
2374.67	0
2374.97	0
2375.28	0
2375.58	0
2375.88	0
2376.19	0
2376.49	0
2376.79	0
2377.1	0
2377.4	0
2377.7	0
2378.01	0
2378.31	0
2378.61	0
2378.92	0
2379.22	0
2379.52	0
2379.82	0
2380.13	0
2380.43	0
2380.73	0
2381.04	0
2381.34	0
2381.64	0
2381.95	0
2382.25	0
2382.55	0
2382.85	0
2383.16	0
2383.46	0
2383.76	0
2384.06	0
2384.37	0
2384.67	0
2384.97	0
2385.28	0
2385.58	0
2385.88	0
2386.18	0
2386.49	0
2386.79	0
2387.09	0
2387.39	0
2387.69	0
2388	0
2388.3	0
2388.6	0
2388.9	0
2389.21	0
2389.51	0
2389.81	0
2390.11	0
2390.42	0
2390.72	0
2391.02	0
2391.32	0
2391.62	0
2391.93	0
2392.23	0
2392.53	0
2392.83	0
2393.13	0
2393.44	0
2393.74	0
2394.04	0
2394.34	0
2394.64	0
2394.95	0
2395.25	0
2395.55	0
2395.85	0
2396.15	0
2396.45	0
2396.76	0
2397.06	0
2397.36	0
2397.66	0
2397.96	0
2398.26	0
2398.57	0
2398.87	0
2399.17	0
2399.47	0
2399.77	0
2400.07	0
2400.37	0
2400.68	0
2400.98	0
2401.28	0
2401.58	0
2401.88	0
2402.18	0
2402.48	0
2402.79	0
2403.09	0
2403.39	0
2403.69	0
2403.99	0
2404.29	0
2404.59	0
2404.89	0
2405.19	0
2405.5	0
2405.8	0
2406.1	0
2406.4	0
2406.7	0
2407	0
2407.3	0
2407.6	0
2407.9	0
2408.2	0
2408.5	0
2408.8	0
2409.11	0
2409.41	0
2409.71	0
2410.01	0
2410.31	0
2410.61	0
2410.91	0
2411.21	0
2411.51	0
2411.81	0
2412.11	0
2412.41	0
2412.71	0
2413.01	0
2413.31	0
2413.61	0
2413.91	0
2414.21	0
2414.51	0
2414.81	0
2415.12	0
2415.42	0
2415.72	0
2416.02	0
2416.32	0
2416.62	0
2416.92	0
2417.22	0
2417.52	0
2417.82	0
2418.12	0
2418.42	0
2418.72	0
2419.02	0
2419.32	0
2419.62	0
2419.92	0
2420.22	0
2420.52	0
2420.82	0
2421.12	0
2421.42	0
2421.71	0
2422.01	0
2422.31	0
2422.61	0
2422.91	0
2423.21	0
2423.51	0
2423.81	0
2424.11	0
2424.41	0
2424.71	0
2425.01	0
2425.31	0
2425.61	0
2425.91	0
2426.21	0
2426.51	0
2426.81	0
2427.11	0
2427.41	0
2427.7	0
2428	0
2428.3	0
2428.6	0
2428.9	0
2429.2	0
2429.5	0
2429.8	0
2430.1	0
2430.4	0
2430.7	0
2430.99	0
2431.29	0
2431.59	0
2431.89	0
2432.19	0
2432.49	0
2432.79	0
2433.09	0
2433.39	0
2433.68	0
2433.98	0
2434.28	0
2434.58	0
2434.88	0
2435.18	0
2435.48	0
2435.78	0
2436.07	0
2436.37	0
2436.67	0
2436.97	0
2437.27	0
2437.57	0
2437.86	0
2438.16	0
2438.46	0
2438.76	0
2439.06	0
2439.36	0
2439.66	0
2439.95	0
2440.25	0
2440.55	0
2440.85	0
2441.15	0
2441.44	0
2441.74	0
2442.04	0
2442.34	0
2442.64	0
2442.93	0
2443.23	0
2443.53	0
2443.83	0
2444.13	0
2444.42	0
2444.72	0
2445.02	0
2445.32	0
2445.62	0
2445.91	0
2446.21	0
2446.51	0
2446.81	0
2447.1	0
2447.4	0
2447.7	0
2448	0
2448.3	0
2448.59	0
2448.89	0
2449.19	0
2449.49	0
2449.78	0
2450.08	0
2450.38	0
2450.68	0
2450.97	0
2451.27	0
2451.57	0
2451.87	0
2452.16	0
2452.46	0
2452.76	0
2453.05	0
2453.35	0
2453.65	0
2453.95	0
2454.24	0
2454.54	0
2454.84	0
2455.13	0
2455.43	0
2455.73	0
2456.03	0
2456.32	0
2456.62	0
2456.92	0
2457.21	0
2457.51	0
2457.81	0
2458.1	0
2458.4	0
2458.7	0
2458.99	0
2459.29	0
2459.59	0
2459.88	0
2460.18	0
2460.48	0
2460.77	0
2461.07	0
2461.37	0
2461.66	0
2461.96	0
2462.26	0
2462.55	0
2462.85	0
2463.15	0
2463.44	0
2463.74	0
2464.04	0
2464.33	0
2464.63	0
2464.92	0
2465.22	0
2465.52	0
2465.81	0
2466.11	0
2466.41	0
2466.7	0
2467	0
2467.29	0
2467.59	0
2467.89	0
2468.18	0
2468.48	0
2468.77	0
2469.07	0
2469.37	0
2469.66	0
2469.96	0
2470.25	0
2470.55	0
2470.84	0
2471.14	0
2471.44	0
2471.73	0
2472.03	0
2472.32	0
2472.62	0
2472.91	0
2473.21	0
2473.51	0
2473.8	0
2474.1	0
2474.39	0
2474.69	0
2474.98	0
2475.28	0
2475.57	0
2475.87	0
2476.17	0
2476.46	0
2476.76	0
2477.05	0
2477.35	0
2477.64	0
2477.94	0
2478.23	0
2478.53	0
2478.82	0
2479.12	0
2479.41	0
2479.71	0
2480	0
2480.3	0
2480.59	0
2480.89	0
2481.18	0
2481.48	0
2481.77	0
2482.07	0
2482.36	0
2482.66	0
2482.95	0
2483.25	0
2483.54	0
2483.84	0
2484.13	0
2484.43	0
2484.72	0
2485.02	0
2485.31	0
2485.6	0
2485.9	0
2486.19	0
2486.49	0
2486.78	0
2487.08	0
2487.37	0
2487.67	0
2487.96	0
2488.26	0
2488.55	0
2488.84	0
2489.14	0
2489.43	0
2489.73	0
2490.02	0
2490.32	0
2490.61	0
2490.9	0
2491.2	0
2491.49	0
2491.79	0
2492.08	0
2492.37	0
2492.67	0
2492.96	0
2493.26	0
2493.55	0
2493.84	0
2494.14	0
2494.43	0
2494.73	0
2495.02	0
2495.31	0
2495.61	0
2495.9	0
2496.2	0
2496.49	0
2496.78	0
2497.08	0
2497.37	0
2497.66	0
2497.96	0
2498.25	0
2498.54	0
2498.84	0
2499.13	0
2499.43	0
2499.72	0
2500.01	0
2500.31	0
2500.6	0
2500.89	0
2501.19	0
2501.48	0
2501.77	0
2502.07	0
2502.36	0
2502.65	0
2502.95	0
2503.24	0
2503.53	0
2503.82	0
2504.12	0
2504.41	0
2504.7	0
2505	0
2505.29	0
2505.58	0
2505.88	0
2506.17	0
2506.46	0
2506.76	0
2507.05	0
2507.34	0
2507.63	0
2507.93	0
2508.22	0
2508.51	0
2508.8	0
2509.1	0
2509.39	0
2509.68	0
2509.98	0
2510.27	0
2510.56	0
2510.85	0
2511.15	0
2511.44	0
2511.73	0
2512.02	0
2512.32	0
2512.61	0
2512.9	0
2513.19	0
2513.49	0
2513.78	0
2514.07	0
2514.36	0
2514.65	0
2514.95	0
2515.24	0
2515.53	0
2515.82	0
2516.12	0
2516.41	0
2516.7	0
2516.99	0
2517.28	0
2517.58	0
2517.87	0
2518.16	0
2518.45	0
2518.74	0
2519.04	0
2519.33	0
2519.62	0
2519.91	0
2520.2	0
2520.5	0
2520.79	0
2521.08	0
2521.37	0
2521.66	0
2521.95	0
2522.25	0
2522.54	0
2522.83	0
2523.12	0
2523.41	0
2523.7	0
2523.99	0
2524.29	0
2524.58	0
2524.87	0
2525.16	0
2525.45	0
2525.74	0
2526.03	0
2526.33	0
2526.62	0
2526.91	0
2527.2	0
2527.49	0
2527.78	0
2528.07	0
2528.36	0
2528.66	0
2528.95	0
2529.24	0
2529.53	0
2529.82	0
2530.11	0
2530.4	0
2530.69	0
2530.98	0
2531.27	0
2531.57	0
2531.86	0
2532.15	0
2532.44	0
2532.73	0
2533.02	0
2533.31	0
2533.6	0
2533.89	0
2534.18	0
2534.47	0
2534.76	0
2535.05	0
2535.35	0
2535.64	0
2535.93	0
2536.22	0
2536.51	0
2536.8	0
2537.09	0
2537.38	0
2537.67	0
2537.96	0
2538.25	0
2538.54	0
2538.83	0
2539.12	0
2539.41	0
2539.7	0
2539.99	0
2540.28	0
2540.57	0
2540.86	0
2541.15	0
2541.44	0
2541.73	0
2542.02	0
2542.31	0
2542.6	0
2542.89	0
2543.18	0
2543.47	0
2543.76	0
2544.05	0
2544.34	0
2544.63	0
2544.92	0
2545.21	0
2545.5	0
2545.79	0
2546.08	0
2546.37	0
2546.66	0
2546.95	0
2547.24	0
2547.53	0
2547.82	0
2548.11	0
2548.4	0
2548.69	0
2548.98	0
2549.27	0
2549.55	0
2549.84	0
2550.13	0
2550.42	0
2550.71	0
2551	0
2551.29	0
2551.58	0
2551.87	0
2552.16	0
2552.45	0
2552.74	0
2553.03	0
2553.31	0
2553.6	0
2553.89	0
2554.18	0
2554.47	0
2554.76	0
2555.05	0
2555.34	0
2555.63	0
2555.92	0
2556.2	0
2556.49	0
2556.78	0
2557.07	0
2557.36	0
2557.65	0
2557.94	0
2558.23	0
2558.51	0
2558.8	0
2559.09	0
2559.38	0
2559.67	0
2559.96	0
2560.25	0
2560.53	0
2560.82	0
2561.11	0
2561.4	0
2561.69	0
2561.98	0
2562.27	0
2562.55	0
2562.84	0
2563.13	0
2563.42	0
2563.71	0
2564	0
2564.28	0
2564.57	0
2564.86	0
2565.15	0
2565.44	0
2565.72	0
2566.01	0
2566.3	0
2566.59	0
2566.88	0
2567.16	0
2567.45	0
2567.74	0
2568.03	0
2568.32	0
2568.6	0
2568.89	0
2569.18	0
2569.47	0
2569.75	0

