Source: Spectrum Viewer

Chart: Pulse Spectrum

Series: 
Wavelength (nm)	S (a.u.)
1179.9	0
1180.29	0
1180.68	0
1181.06	0
1181.45	0
1181.83	0
1182.22	0
1182.6	0
1182.99	0
1183.38	0
1183.76	0
1184.15	0
1184.53	0
1184.92	0
1185.3	0
1185.69	0
1186.07	0
1186.46	0
1186.85	0
1187.23	0
1187.62	0
1188	0
1188.39	0
1188.77	0
1189.16	0
1189.54	0
1189.93	0
1190.31	0
1190.7	0
1191.08	0
1191.47	0
1191.85	0
1192.24	0
1192.62	0
1193.01	0
1193.39	0
1193.78	0
1194.16	0
1194.55	0
1194.93	0
1195.32	0
1195.7	0
1196.09	0
1196.47	0
1196.86	0
1197.24	0
1197.63	0
1198.01	0
1198.4	0
1198.78	0
1199.16	0
1199.55	0
1199.93	0
1200.32	0
1200.7	0
1201.09	0
1201.47	0
1201.86	0
1202.24	0
1202.63	0
1203.01	0
1203.39	0
1203.78	0
1204.16	0
1204.55	0
1204.93	0
1205.32	0
1205.7	0
1206.08	0
1206.47	0
1206.85	0
1207.24	0
1207.62	0
1208	0
1208.39	0
1208.77	0
1209.16	0
1209.54	0
1209.92	0
1210.31	0
1210.69	0
1211.08	0
1211.46	0
1211.84	0
1212.23	0
1212.61	0
1213	0
1213.38	0
1213.76	0
1214.15	0
1214.53	0
1214.91	0
1215.3	0
1215.68	0
1216.06	0
1216.45	0
1216.83	0
1217.22	0
1217.6	0
1217.98	0
1218.37	0
1218.75	0
1219.13	0
1219.52	0
1219.9	0
1220.28	0
1220.67	0
1221.05	0
1221.43	0
1221.82	0
1222.2	0
1222.58	0
1222.97	0
1223.35	0
1223.73	0
1224.11	0
1224.5	0
1224.88	0
1225.26	0
1225.65	0
1226.03	0
1226.41	0
1226.8	0
1227.18	0
1227.56	0
1227.94	0
1228.33	0
1228.71	0
1229.09	0
1229.47	0
1229.86	0
1230.24	0
1230.62	0
1231.01	0
1231.39	0
1231.77	0
1232.15	0
1232.54	0
1232.92	0
1233.3	0
1233.68	0
1234.07	0
1234.45	0
1234.83	0
1235.21	0
1235.6	0
1235.98	0
1236.36	0
1236.74	0
1237.12	0
1237.51	0
1237.89	0
1238.27	0
1238.65	0
1239.04	0
1239.42	0
1239.8	0
1240.18	0
1240.56	0
1240.95	0
1241.33	0
1241.71	0
1242.09	0
1242.47	0
1242.86	0
1243.24	0
1243.62	0
1244	0
1244.38	0
1244.77	0
1245.15	0
1245.53	0
1245.91	0
1246.29	0
1246.67	0
1247.06	0
1247.44	0
1247.82	0
1248.2	0
1248.58	0
1248.96	0
1249.34	0
1249.73	0
1250.11	0
1250.49	0
1250.87	0
1251.25	0
1251.63	0
1252.01	0
1252.4	0
1252.78	0
1253.16	0
1253.54	0
1253.92	0
1254.3	0
1254.68	0
1255.06	0
1255.45	0
1255.83	0
1256.21	0
1256.59	0
1256.97	0
1257.35	0
1257.73	0
1258.11	0
1258.49	0
1258.87	0
1259.26	0
1259.64	0
1260.02	0
1260.4	0
1260.78	0
1261.16	0
1261.54	0
1261.92	0
1262.3	0
1262.68	0
1263.06	0
1263.44	0
1263.82	0
1264.21	0
1264.59	0
1264.97	0
1265.35	0
1265.73	0
1266.11	0
1266.49	0
1266.87	0
1267.25	0
1267.63	0
1268.01	0
1268.39	0
1268.77	0
1269.15	0
1269.53	0
1269.91	0
1270.29	0
1270.67	0
1271.05	0
1271.43	0
1271.81	0
1272.19	0
1272.57	0
1272.95	0
1273.33	0
1273.71	0
1274.09	0
1274.47	0
1274.85	0
1275.23	0
1275.61	0
1275.99	0
1276.37	0
1276.75	0
1277.13	0
1277.51	0
1277.89	0
1278.27	0
1278.65	0
1279.03	0
1279.41	0
1279.79	0
1280.17	0
1280.55	0
1280.93	0
1281.31	0
1281.69	0
1282.07	0
1282.45	0
1282.82	0
1283.2	0
1283.58	0
1283.96	0
1284.34	0
1284.72	0
1285.1	0
1285.48	0
1285.86	0
1286.24	0
1286.62	0
1287	0
1287.38	0
1287.75	0
1288.13	0
1288.51	0
1288.89	0
1289.27	0
1289.65	0
1290.03	0
1290.41	0
1290.79	0
1291.17	0
1291.54	0
1291.92	0
1292.3	0
1292.68	0
1293.06	0
1293.44	0
1293.82	0
1294.2	0
1294.57	0
1294.95	0
1295.33	0
1295.71	0
1296.09	0
1296.47	0
1296.85	0
1297.22	0
1297.6	0
1297.98	0
1298.36	0
1298.74	0
1299.12	0
1299.5	0
1299.87	0
1300.25	0
1300.63	0
1301.01	0
1301.39	0
1301.77	0
1302.14	0
1302.52	0
1302.9	0
1303.28	0
1303.66	0
1304.03	0
1304.41	0
1304.79	0
1305.17	0
1305.55	0
1305.92	0
1306.3	0
1306.68	0
1307.06	0
1307.44	0
1307.81	0
1308.19	0
1308.57	0
1308.95	0
1309.32	0
1309.7	0
1310.08	0
1310.46	0
1310.84	0
1311.21	0
1311.59	0
1311.97	0
1312.35	0
1312.72	0
1313.1	0
1313.48	0
1313.86	0
1314.23	0
1314.61	0
1314.99	0
1315.37	0
1315.74	0
1316.12	0
1316.5	0
1316.87	0
1317.25	0
1317.63	0
1318.01	0
1318.38	0
1318.76	0
1319.14	0
1319.52	0
1319.89	0
1320.27	0
1320.65	0
1321.02	0
1321.4	0
1321.78	0
1322.15	0
1322.53	0
1322.91	0
1323.29	0
1323.66	0
1324.04	0
1324.42	0
1324.79	0
1325.17	0
1325.55	0
1325.92	0
1326.3	0
1326.68	0
1327.05	0
1327.43	0
1327.81	0
1328.18	0
1328.56	0
1328.94	0
1329.31	0
1329.69	0
1330.06	0
1330.44	0
1330.82	0
1331.19	0
1331.57	0
1331.95	0
1332.32	0
1332.7	0
1333.08	0
1333.45	0
1333.83	0
1334.2	0
1334.58	0
1334.96	0
1335.33	0
1335.71	0
1336.08	0
1336.46	0
1336.84	0
1337.21	0
1337.59	0
1337.96	0
1338.34	0
1338.72	0
1339.09	0
1339.47	0
1339.84	0
1340.22	0
1340.6	0
1340.97	0
1341.35	0
1341.72	0
1342.1	0
1342.47	0
1342.85	0
1343.23	0
1343.6	0
1343.98	0
1344.35	0
1344.73	0
1345.1	0
1345.48	0
1345.85	0
1346.23	0
1346.61	0
1346.98	0
1347.36	0
1347.73	0
1348.11	0
1348.48	0
1348.86	0
1349.23	0
1349.61	0
1349.98	0
1350.36	0
1350.73	0
1351.11	0
1351.48	0
1351.86	0
1352.23	0
1352.61	0
1352.98	0
1353.36	0
1353.73	0
1354.11	0
1354.48	0
1354.86	0
1355.23	0
1355.61	0
1355.98	0
1356.36	0
1356.73	0
1357.11	0
1357.48	0
1357.86	0
1358.23	0
1358.61	0
1358.98	0
1359.35	0
1359.73	0
1360.1	0
1360.48	0
1360.85	0
1361.23	0
1361.6	0
1361.98	0
1362.35	0
1362.72	0
1363.1	0
1363.47	0
1363.85	0
1364.22	0
1364.6	0
1364.97	0
1365.34	0
1365.72	0
1366.09	0
1366.47	0
1366.84	0
1367.22	0
1367.59	0
1367.96	0
1368.34	0
1368.71	0
1369.09	0
1369.46	-1
1369.83	-1
1370.21	-1
1370.58	-0.96
1370.96	-0.84
1371.33	0.16
1371.7	0.52
1372.08	0.56
1372.45	0.52
1372.82	0.4
1373.2	0.4
1373.57	0.04
1373.95	0
1374.32	0.04
1374.69	0.2
1375.07	0.2
1375.44	0.2
1375.81	0.2
1376.19	0.16
1376.56	0
1376.93	0.12
1377.31	0.12
1377.68	0.36
1378.05	0.56
1378.43	0.56
1378.8	1.08
1379.17	1.08
1379.55	1.12
1379.92	1.08
1380.29	1.08
1380.67	0.52
1381.04	0.68
1381.41	0.4
1381.79	0.24
1382.16	0.28
1382.53	0.2
1382.91	-0.96
1383.28	-0.96
1383.65	-0.96
1384.03	-1
1384.4	-1
1384.77	0
1385.14	0.04
1385.52	0.32
1385.89	0.4
1386.26	0.4
1386.64	0.56
1387.01	0.64
1387.38	0.36
1387.75	0.28
1388.13	0.4
1388.5	0.24
1388.87	0.12
1389.25	0.16
1389.62	0.08
1389.99	0.04
1390.36	0.04
1390.74	0.04
1391.11	0.16
1391.48	0.68
1391.85	0.6
1392.23	0.6
1392.6	0.76
1392.97	0.6
1393.34	0.24
1393.72	0.24
1394.09	0.32
1394.46	0.2
1394.83	0.64
1395.21	0.8
1395.58	1.04
1395.95	1.28
1396.32	1.24
1396.69	0.8
1397.07	0.6
1397.44	0.36
1397.81	0.56
1398.18	0.56
1398.55	0.56
1398.93	0.72
1399.3	0.72
1399.67	0.2
1400.04	0.2
1400.41	0.2
1400.79	0
1401.16	0
1401.53	0.04
1401.9	0.04
1402.27	0.36
1402.65	0.48
1403.02	0.48
1403.39	0.44
1403.76	0.08
1404.13	-0.16
1404.51	-2.88669e-17
1404.88	0.04
1405.25	0.04
1405.62	0.4
1405.99	0.32
1406.36	0.12
1406.74	0.16
1407.11	0.16
1407.48	0.16
1407.85	-0.88
1408.22	-0.96
1408.59	-1.04
1408.96	-1
1409.34	-1
1409.71	0.04
1410.08	0.32
1410.45	0.36
1410.82	0.32
1411.19	0.52
1411.56	0.52
1411.93	0.24
1412.31	0.44
1412.68	0.52
1413.05	0.4
1413.42	0.52
1413.79	0.56
1414.16	0.12
1414.53	0.12
1414.9	-0.16
1415.27	-0.28
1415.65	-0.32
1416.02	0.04
1416.39	0.08
1416.76	0.28
1417.13	0.44
1417.5	0.48
1417.87	0.32
1418.24	0.2
1418.61	0.2
1418.98	0.04
1419.35	0
1419.73	0
1420.1	0.2
1420.47	0.2
1420.84	0.2
1421.21	0.2
1421.58	0.32
1421.95	0.12
1422.32	0.12
1422.69	0.28
1423.06	0.28
1423.43	0.16
1423.8	0.16
1424.17	0.64
1424.54	0.48
1424.91	0.48
1425.28	0.56
1425.65	0.64
1426.02	0.16
1426.39	0.28
1426.76	-0.24
1427.14	-2.66443e-17
1427.51	-0.08
1427.88	-0.08
1428.25	-0.2
1428.62	0.32
1428.99	0.08
1429.36	0.24
1429.73	0.6
1430.1	0.6
1430.47	0.72
1430.84	0.72
1431.21	0.6
1431.58	0.24
1431.95	0.24
1432.32	0.04
1432.69	-0.04
1433.06	-6.66107e-18
1433.43	-6.66107e-18
1433.8	-6.66107e-18
1434.17	0.08
1434.54	0.08
1434.91	0
1435.28	0.04
1435.64	0.12
1436.01	-0.44
1436.38	-0.44
1436.75	-0.44
1437.12	-0.44
1437.49	-0.48
1437.86	0.08
1438.23	0.08
1438.6	0.16
1438.97	0.4
1439.34	0.36
1439.71	0.36
1440.08	0.56
1440.45	0.48
1440.82	-0.32
1441.19	-0.32
1441.56	-0.28
1441.93	-0.2
1442.3	-0.12
1442.67	-1.16
1443.03	-1.16
1443.4	-1.2
1443.77	-1.48
1444.14	-1.56
1444.51	0
1444.88	0.08
1445.25	0.28
1445.62	0.32
1445.99	0.32
1446.36	0.32
1446.73	0.24
1447.09	0.08
1447.46	0.24
1447.83	0.24
1448.2	0.68
1448.57	0.48
1448.94	0.68
1449.31	0.56
1449.68	1
1450.05	0.56
1450.41	0.88
1450.78	0.28
1451.15	0.2
1451.52	-0.24
1451.89	-0.24
1452.26	-0.36
1452.63	0
1453	0
1453.36	0.04
1453.73	0.04
1454.1	0.12
1454.47	0.12
1454.84	0.2
1455.21	0.16
1455.57	0.04
1455.94	-0.04
1456.31	-3.33053e-18
1456.68	-0.08
1457.05	-6.66107e-18
1457.42	0.12
1457.78	0.16
1458.15	0.12
1458.52	0.12
1458.89	0.04
1459.26	0.04
1459.63	0.04
1459.99	0.04
1460.36	0.04
1460.73	0.04
1461.1	0.24
1461.47	1.12
1461.83	1.12
1462.2	1.24
1462.57	1.48
1462.94	1.32
1463.31	0.6
1463.67	0.6
1464.04	0.32
1464.41	0.08
1464.78	-0.56
1465.15	-0.64
1465.51	-0.52
1465.88	-0.16
1466.25	-0.16
1466.62	0.44
1466.98	0.36
1467.35	0.24
1467.72	0.04
1468.09	0.12
1468.46	0.52
1468.82	0.48
1469.19	0.52
1469.56	0.56
1469.93	0.64
1470.29	0.24
1470.66	0.28
1471.03	0.24
1471.4	0.36
1471.76	0.2
1472.13	0.48
1472.5	0.48
1472.86	0.68
1473.23	0.52
1473.6	0.88
1473.97	0.76
1474.33	0.76
1474.7	0.68
1475.07	0.72
1475.44	0.52
1475.8	0.16
1476.17	0.44
1476.54	0.52
1476.9	0.52
1477.27	0.36
1477.64	0.56
1478	0.24
1478.37	0.04
1478.74	0
1479.11	0.44
1479.47	0.44
1479.84	0.52
1480.21	0.64
1480.57	0.64
1480.94	0.44
1481.31	0.44
1481.67	0.36
1482.04	0.32
1482.41	0.32
1482.77	0.12
1483.14	0.16
1483.51	0.2
1483.87	0.24
1484.24	0.24
1484.61	0.2
1484.97	0.28
1485.34	0.24
1485.71	-0.6
1486.07	-0.6
1486.44	-0.6
1486.81	-0.44
1487.17	-0.44
1487.54	0.4
1487.9	0.44
1488.27	0.44
1488.64	-1.44334e-17
1489	0.32
1489.37	0.32
1489.74	0.28
1490.1	0.32
1490.47	0.76
1490.83	0.44
1491.2	0.44
1491.57	0.52
1491.93	0.48
1492.3	0.32
1492.66	0.32
1493.03	0.2
1493.4	0.32
1493.76	0.32
1494.13	0.2
1494.49	0.44
1494.86	0.68
1495.23	0.6
1495.59	0.68
1495.96	-0.72
1496.32	-0.64
1496.69	-0.8
1497.06	-0.88
1497.42	-1.28
1497.79	0.12
1498.15	0
1498.52	-0.08
1498.88	-0.12
1499.25	0.2
1499.62	-0.04
1499.98	1.33221e-17
1500.35	1.33221e-17
1500.71	1.33221e-17
1501.08	1.33221e-17
1501.44	0.36
1501.81	0.12
1502.17	0.16
1502.54	0.16
1502.9	0.4
1503.27	0.28
1503.64	0.28
1504	0.32
1504.37	0.4
1504.73	0.16
1505.1	0.2
1505.46	0.2
1505.83	0.12
1506.19	0.04
1506.56	0.04
1506.92	0.08
1507.29	0.16
1507.65	0.24
1508.02	0.32
1508.38	0.32
1508.75	0.24
1509.11	0.16
1509.48	0.08
1509.84	0
1510.21	0.2
1510.57	0.2
1510.94	0.2
1511.3	0.56
1511.67	0.6
1512.03	0.44
1512.4	0.44
1512.76	0.44
1513.13	-0.88
1513.49	-0.88
1513.85	-0.92
1514.22	-0.88
1514.58	-0.88
1514.95	0.56
1515.31	0.72
1515.68	0.92
1516.04	1.12
1516.41	1.24
1516.77	0.84
1517.14	0.64
1517.5	0.44
1517.86	0.2
1518.23	0.44
1518.59	0.44
1518.96	0.44
1519.32	0.44
1519.69	0.76
1520.05	0.4
1520.41	0.32
1520.78	0.32
1521.14	0.6
1521.51	0.28
1521.87	0.28
1522.24	0.64
1522.6	0.96
1522.96	0.84
1523.33	0.84
1523.69	0.96
1524.06	0.72
1524.42	0.96
1524.78	0.84
1525.15	0.84
1525.51	0.72
1525.88	0.6
1526.24	0.04
1526.6	0.08
1526.97	0.24
1527.33	0.24
1527.69	0.72
1528.06	1.08
1528.42	1.08
1528.79	1.08
1529.15	0.32
1529.51	-0.04
1529.88	-0.4
1530.24	-0.32
1530.6	-0.24
1530.97	0.52
1531.33	0.44
1531.69	0.48
1532.06	0.6
1532.42	0.52
1532.78	0.52
1533.15	0.48
1533.51	0.44
1533.87	0.2
1534.24	0.12
1534.6	0.12
1534.96	0.12
1535.33	0.2
1535.69	0.16
1536.05	0.08
1536.42	0.08
1536.78	0.24
1537.14	0.16
1537.51	0.2
1537.87	0.24
1538.23	0.24
1538.6	0.08
1538.96	0.12
1539.32	0.16
1539.68	0.68
1540.05	0.68
1540.41	0.68
1540.77	0.64
1541.14	0.6
1541.5	0.08
1541.86	0.08
1542.23	0.16
1542.59	0.28
1542.95	0.36
1543.31	0.32
1543.68	0.48
1544.04	0.4
1544.4	0.28
1544.76	0.16
1545.13	0.24
1545.49	0.28
1545.85	0.64
1546.21	0.64
1546.58	0.68
1546.94	0.6
1547.3	0.44
1547.66	0.08
1548.03	0.36
1548.39	0.6
1548.75	0.6
1549.11	0.68
1549.48	0.68
1549.84	0.4
1550.2	0.12
1550.56	0.12
1550.93	0.08
1551.29	0.08
1551.65	0.44
1552.01	0.44
1552.37	0.56
1552.74	0.48
1553.1	0.52
1553.46	0.2
1553.82	0.2
1554.18	0.44
1554.55	0.76
1554.91	0.92
1555.27	0.88
1555.63	0.88
1555.99	0.56
1556.36	0.24
1556.72	-1.56
1557.08	-1.52
1557.44	-1.52
1557.8	-1.56
1558.17	-1.36
1558.53	0.4
1558.89	1.28
1559.25	1.36
1559.61	1.6
1559.97	1.48
1560.34	1.36
1560.7	0.64
1561.06	0.56
1561.42	0.44
1561.78	0.36
1562.14	0.08
1562.5	-0.12
1562.87	-0.08
1563.23	-0.2
1563.59	-0.24
1563.95	1.44334e-17
1564.31	1.44334e-17
1564.67	0.04
1565.03	0.04
1565.4	0.28
1565.76	0.4
1566.12	0.6
1566.48	0.84
1566.84	0.92
1567.2	0.8
1567.56	0.48
1567.92	0.32
1568.29	0.28
1568.65	0.4
1569.01	0.32
1569.37	0.24
1569.73	0.2
1570.09	0.28
1570.45	0.24
1570.81	0.44
1571.17	0.84
1571.53	1
1571.89	0.64
1572.26	0.48
1572.62	0.32
1572.98	0.2
1573.34	0.28
1573.7	0.28
1574.06	0.28
1574.42	0.24
1574.78	0.04
1575.14	-0.16
1575.5	-0.16
1575.86	-0.96
1576.22	-0.96
1576.58	-0.6
1576.94	-0.64
1577.3	-0.64
1577.67	0.16
1578.03	0.2
1578.39	0.04
1578.75	0.04
1579.11	0.04
1579.47	0.2
1579.83	0.16
1580.19	0.16
1580.55	0.68
1580.91	0.8
1581.27	0.92
1581.63	0.92
1581.99	0.92
1582.35	0.4
1582.71	0.28
1583.07	0
1583.43	0.2
1583.79	0.24
1584.15	0.44
1584.51	0.44
1584.87	0.44
1585.23	0.28
1585.59	0.32
1585.95	0.28
1586.31	0.28
1586.67	0.32
1587.03	0.28
1587.39	0.4
1587.75	0.32
1588.11	0.32
1588.47	0.36
1588.83	0.36
1589.19	0.2
1589.55	0.16
1589.91	0.28
1590.27	0.2
1590.63	0.64
1590.99	0.64
1591.35	0.6
1591.71	0.48
1592.07	0.76
1592.42	0.32
1592.78	0.28
1593.14	0.32
1593.5	0.48
1593.86	0.4
1594.22	0.48
1594.58	0.48
1594.94	0.64
1595.3	0.48
1595.66	0.28
1596.02	0.2
1596.38	0.2
1596.74	0
1597.1	0
1597.46	0
1597.81	0.04
1598.17	0.04
1598.53	0.04
1598.89	0.04
1599.25	0.16
1599.61	0.16
1599.97	0.28
1600.33	0.28
1600.69	0.4
1601.05	0.28
1601.4	0.28
1601.76	-0.08
1602.12	-0.08
1602.48	-0.04
1602.84	0.04
1603.2	0.08
1603.56	0.32
1603.92	0.36
1604.28	0.64
1604.63	0.92
1604.99	0.84
1605.35	0.84
1605.71	0.8
1606.07	0.4
1606.43	0.04
1606.79	0.2
1607.14	0.52
1607.5	0.52
1607.86	0.48
1608.22	0.8
1608.58	0.84
1608.94	0.56
1609.29	0.56
1609.65	0.36
1610.01	0.04
1610.37	-0.08
1610.73	-0.12
1611.09	6.66107e-18
1611.44	0.24
1611.8	0.4
1612.16	0.4
1612.52	0.4
1612.88	0.48
1613.24	0.44
1613.59	0.48
1613.95	1.04
1614.31	1.04
1614.67	1.28
1615.03	1.56
1615.38	1.44
1615.74	0.92
1616.1	0.96
1616.46	0.64
1616.82	0.44
1617.17	0.44
1617.53	0.32
1617.89	0.52
1618.25	0.56
1618.6	0.84
1618.96	0.76
1619.32	1
1619.68	0.8
1620.04	0.8
1620.39	0.36
1620.75	0.8
1621.11	0.64
1621.47	0.88
1621.82	0.92
1622.18	1.04
1622.54	0.96
1622.9	0.88
1623.25	-0.4
1623.61	-0.6
1623.97	-0.64
1624.33	-0.56
1624.68	-0.72
1625.04	0.72
1625.4	0.72
1625.75	0.52
1626.11	0.2
1626.47	0.52
1626.83	0.32
1627.18	0.32
1627.54	0.64
1627.9	0.68
1628.26	0.6
1628.61	0.68
1628.97	0.72
1629.33	0.88
1629.68	0.96
1630.04	0.88
1630.4	0.28
1630.75	0.64
1631.11	0.76
1631.47	0.72
1631.83	0.88
1632.18	1.16
1632.54	1.12
1632.9	1.28
1633.25	1.4
1633.61	1.4
1633.97	1.72
1634.32	1.52
1634.68	1
1635.04	1.04
1635.39	0.92
1635.75	0.8
1636.11	1.08
1636.46	1.04
1636.82	1.12
1637.18	1.32
1637.53	1.2
1637.89	0.84
1638.25	0.92
1638.6	0.56
1638.96	0.6
1639.31	0.96
1639.67	0.88
1640.03	0.84
1640.38	0.84
1640.74	0.72
1641.1	0.28
1641.45	0.36
1641.81	0.36
1642.16	0.32
1642.52	0.44
1642.88	0.48
1643.23	-0.2
1643.59	-0.04
1643.95	-0.08
1644.3	-0.36
1644.66	-0.2
1645.01	0.56
1645.37	0.48
1645.73	0.64
1646.08	0.68
1646.44	0.76
1646.79	0.04
1647.15	0.08
1647.51	-0.08
1647.86	-0.04
1648.22	-0.32
1648.57	-0.32
1648.93	-0.48
1649.28	-0.12
1649.64	-0.04
1650	0.04
1650.35	0.6
1650.71	0.6
1651.06	0.32
1651.42	0.24
1651.77	-0.04
1652.13	-0.04
1652.48	-0.04
1652.84	-0.12
1653.2	-0.2
1653.55	0
1653.91	0
1654.26	0.04
1654.62	0.04
1654.97	0.28
1655.33	0.4
1655.68	0.4
1656.04	0.48
1656.39	0.48
1656.75	0.56
1657.1	0.48
1657.46	0.6
1657.81	0.48
1658.17	0.48
1658.52	0.36
1658.88	0.32
1659.23	0.2
1659.59	0.2
1659.94	0.2
1660.3	0.08
1660.65	0.08
1661.01	0.44
1661.36	0.44
1661.72	0.48
1662.07	0.48
1662.43	0.48
1662.78	0.4
1663.14	0.4
1663.49	0.36
1663.85	0.6
1664.2	0.6
1664.56	1.08
1664.91	-0.72
1665.27	-0.44
1665.62	-0.56
1665.98	-0.56
1666.33	-1.24
1666.69	0.8
1667.04	0.6
1667.39	0.52
1667.75	1.08
1668.1	1
1668.46	0.92
1668.81	1.44
1669.17	1.84
1669.52	1.52
1669.88	1.84
1670.23	1.68
1670.58	1.28
1670.94	1.08
1671.29	1.28
1671.65	1.08
1672	1.08
1672.36	0.88
1672.71	1.36
1673.06	1.48
1673.42	1.92
1673.77	2.16
1674.13	2.56
1674.48	2.4
1674.83	3.24
1675.19	2.96
1675.54	2.84
1675.9	2.92
1676.25	2.6
1676.6	1.6
1676.96	2.04
1677.31	2.04
1677.67	1.8
1678.02	2.12
1678.37	2.04
1678.73	2.16
1679.08	2.4
1679.43	2.48
1679.79	2.84
1680.14	3.24
1680.5	2.52
1680.85	2.88
1681.2	2.56
1681.56	2.16
1681.91	2.36
1682.26	2.8
1682.62	2.96
1682.97	3.56
1683.32	3.32
1683.68	2.4
1684.03	2.48
1684.38	2.04
1684.74	1.72
1685.09	1.36
1685.44	1.84
1685.8	1.8
1686.15	2.28
1686.5	2.64
1686.86	3.04
1687.21	3.12
1687.56	3.44
1687.92	3.4
1688.27	2.96
1688.62	3.72
1688.98	3.6
1689.33	2.76
1689.68	2.48
1690.03	3.08
1690.39	2.36
1690.74	2.16
1691.09	2.68
1691.45	2.24
1691.8	1.72
1692.15	1.52
1692.5	1.88
1692.86	1.36
1693.21	1.56
1693.56	1.68
1693.92	1.76
1694.27	0.92
1694.62	1.32
1694.97	1.2
1695.33	1.24
1695.68	1.24
1696.03	2.2
1696.38	2
1696.74	2.28
1697.09	2.16
1697.44	2.32
1697.79	2.36
1698.15	2.48
1698.5	1.96
1698.85	1.84
1699.2	1.4
1699.56	0.8
1699.91	1.32
1700.26	1.4
1700.61	2
1700.97	2.8
1701.32	3.36
1701.67	2.96
1702.02	3.4
1702.37	3.32
1702.73	3.4
1703.08	3.08
1703.43	3.36
1703.78	3.36
1704.13	3.36
1704.49	2.48
1704.84	2.76
1705.19	2.68
1705.54	2.88
1705.89	2.84
1706.25	2.84
1706.6	2.84
1706.95	2.48
1707.3	2.2
1707.65	2.08
1708.01	3
1708.36	2.96
1708.71	3.2
1709.06	3.48
1709.41	3.76
1709.76	3.08
1710.12	3.08
1710.47	3.08
1710.82	2.72
1711.17	2.12
1711.52	2
1711.87	1.8
1712.23	1.48
1712.58	1.8
1712.93	1.88
1713.28	1.96
1713.63	1.92
1713.98	2.24
1714.33	2.28
1714.69	2.52
1715.04	2.48
1715.39	2.36
1715.74	2
1716.09	1.92
1716.44	1.96
1716.79	2.56
1717.14	2.4
1717.5	2.72
1717.85	2.84
1718.2	2.32
1718.55	1.96
1718.9	1.88
1719.25	1.8
1719.6	1.28
1719.95	1.48
1720.3	1.12
1720.65	1.32
1721.01	1.12
1721.36	0.88
1721.71	0.6
1722.06	-0.08
1722.41	-0.52
1722.76	-0.12
1723.11	0.24
1723.46	0.24
1723.81	1.12
1724.16	1.36
1724.51	0.68
1724.86	0.6
1725.21	0.64
1725.56	0.36
1725.92	0.32
1726.27	0.32
1726.62	0.12
1726.97	0.16
1727.32	-0.08
1727.67	0.08
1728.02	0.4
1728.37	0.36
1728.72	0.76
1729.07	1
1729.42	1.4
1729.77	1.28
1730.12	1.4
1730.47	1.04
1730.82	1.36
1731.17	0.92
1731.52	0.96
1731.87	0.8
1732.22	1.32
1732.57	1.28
1732.92	1.48
1733.27	1.92
1733.62	3.2
1733.97	3.8
1734.32	3.76
1734.67	4.84
1735.02	5.16
1735.37	6.64
1735.72	6.72
1736.07	8.56
1736.42	10.16
1736.77	12.6
1737.12	13.28
1737.47	17.08
1737.82	20.56
1738.17	22.56
1738.52	26.28
1738.87	29.28
1739.22	29.8
1739.57	32.52
1739.92	36.56
1740.27	38.4
1740.62	42.32
1740.97	48.72
1741.32	50.28
1741.67	53.28
1742.02	58.04
1742.37	60.84
1742.72	65.08
1743.06	70.64
1743.41	75.72
1743.76	80.8
1744.11	82.84
1744.46	83.8
1744.81	90
1745.16	91.92
1745.51	95
1745.86	103.24
1746.21	111.12
1746.56	117.64
1746.91	124.88
1747.26	130.28
1747.6	138.24
1747.95	141.32
1748.3	142.36
1748.65	146.4
1749	151.24
1749.35	152.72
1749.7	155.76
1750.05	164.28
1750.4	174.12
1750.75	177.08
1751.09	186.56
1751.44	200.76
1751.79	203.28
1752.14	212.12
1752.49	224.48
1752.84	227.48
1753.19	239.48
1753.54	246.84
1753.88	249.2
1754.23	267.64
1754.58	277
1754.93	279.44
1755.28	298.36
1755.63	306.32
1755.98	312.64
1756.32	328.6
1756.67	331.04
1757.02	346.32
1757.37	360.72
1757.72	362.4
1758.07	380.96
1758.42	396.6
1758.76	404.8
1759.11	422.44
1759.46	431.92
1759.81	445.52
1760.16	461.84
1760.5	460.52
1760.85	478.68
1761.2	495.64
1761.55	499.24
1761.9	519.08
1762.25	534.96
1762.59	553.04
1762.94	572.24
1763.29	577.08
1763.64	598.92
1763.99	619.48
1764.33	615.2
1764.68	634.16
1765.03	651.56
1765.38	659.88
1765.73	678.96
1766.07	689.76
1766.42	710.6
1766.77	732.08
1767.12	735.28
1767.46	759.56
1767.81	781.8
1768.16	783
1768.51	803.12
1768.85	822.4
1769.2	822.76
1769.55	834.64
1769.9	851.8
1770.25	862.32
1770.59	874
1770.94	889.4
1771.29	904.4
1771.64	920.8
1771.98	929.48
1772.33	941.32
1772.68	967.08
1773.02	986.8
1773.37	999.48
1773.72	1033.8
1774.07	1055.56
1774.41	1061.84
1774.76	1085.32
1775.11	1089.32
1775.46	1077.64
1775.8	1085.16
1776.15	1081.2
1776.5	1085.64
1776.84	1114.2
1777.19	1127.36
1777.54	1161.76
1777.89	1199.16
1778.23	1209.72
1778.58	1237.36
1778.93	1264.64
1779.27	1262.84
1779.62	1289.04
1779.97	1293.6
1780.31	1282.68
1780.66	1289.32
1781.01	1288.56
1781.35	1292.12
1781.7	1326.88
1782.05	1336.04
1782.39	1359.56
1782.74	1382.76
1783.09	1385.08
1783.43	1419.96
1783.78	1445.36
1784.13	1471.12
1784.47	1499.92
1784.82	1496.96
1785.17	1457.96
1785.51	1456.76
1785.86	1436.32
1786.21	1464.16
1786.55	1498
1786.9	1547.92
1787.25	1588.52
1787.59	1638.08
1787.94	1626.36
1788.29	1627.28
1788.63	1630.8
1788.98	1639.72
1789.32	1637.64
1789.67	1628.32
1790.02	1575.72
1790.36	1533.32
1790.71	1517.68
1791.06	1508.12
1791.4	1543.76
1791.75	1619
1792.09	1679.32
1792.44	1733.16
1792.79	1773.28
1793.13	1827.68
1793.48	1892.16
1793.82	1918.24
1794.17	1937.2
1794.52	1964.8
1794.86	1927.76
1795.21	1905.88
1795.55	1876.44
1795.9	1673.08
1796.24	1590.88
1796.59	1642.76
1796.94	1672.8
1797.28	1770.28
1797.63	1951.04
1797.97	2008.96
1798.32	1975.24
1798.66	1906.64
1799.01	1880.92
1799.36	1889.88
1799.7	1862.32
1800.05	1899.24
1800.39	1900.72
1800.74	1805.96
1801.08	1865.96
1801.43	1946.68
1801.77	1930.76
1802.12	1948.44
1802.46	2016.28
1802.81	2012.52
1803.15	2002.48
1803.5	2009.56
1803.85	2049.84
1804.19	1975.4
1804.54	1884.2
1804.88	1878.44
1805.23	1790.72
1805.57	1697.24
1805.92	1757.6
1806.26	1814.24
1806.61	1760.32
1806.95	1733.28
1807.3	1805.44
1807.64	1895.8
1807.99	1928.12
1808.33	2004.8
1808.68	2075.2
1809.02	2022.12
1809.37	1966.4
1809.71	1965.12
1810.06	1968.88
1810.4	2002.36
1810.75	1978.68
1811.09	1870.36
1811.43	1832.84
1811.78	1835
1812.12	1902.76
1812.47	2069.88
1812.81	2209.28
1813.16	2265.2
1813.5	2304.88
1813.85	2283
1814.19	2263.32
1814.54	2283.2
1814.88	2241.4
1815.23	2171.64
1815.57	2106.24
1815.91	1940.4
1816.26	1689.48
1816.6	1606.6
1816.95	1573.84
1817.29	1482.24
1817.64	1518.08
1817.98	1663.6
1818.32	1763.08
1818.67	1849.36
1819.01	1982
1819.36	2089.12
1819.7	2123.32
1820.05	2067.16
1820.39	2046.12
1820.73	2060.16
1821.08	2055.24
1821.42	2082.24
1821.77	2139.8
1822.11	2039.68
1822.45	1914
1822.8	1869.68
1823.14	1749.6
1823.49	1576.72
1823.83	1613.52
1824.17	1722.36
1824.52	1770.64
1824.86	1895.08
1825.2	2040.16
1825.55	2048.04
1825.89	1975.36
1826.24	1828.56
1826.58	1752.08
1826.92	1731.32
1827.27	1714.6
1827.61	1761.76
1827.95	1880.68
1828.3	1913.44
1828.64	1889.84
1828.98	1859.96
1829.33	1704.2
1829.67	1603.2
1830.02	1572.88
1830.36	1523.92
1830.7	1552.88
1831.05	1710.72
1831.39	1795.56
1831.73	1822.48
1832.08	1900.92
1832.42	1893.32
1832.76	1846.12
1833.1	1841.4
1833.45	1807.68
1833.79	1724.16
1834.13	1655.48
1834.48	1631.32
1834.82	1584.96
1835.16	1589.92
1835.51	1622.28
1835.85	1650.68
1836.19	1672.56
1836.54	1646.4
1836.88	1593.84
1837.22	1493.08
1837.56	1372.56
1837.91	1200.12
1838.25	1130.52
1838.59	1152.28
1838.94	1209.2
1839.28	1288.76
1839.62	1351.68
1839.96	1378.48
1840.31	1321.32
1840.65	1251.48
1840.99	1117.12
1841.34	1087.32
1841.68	1080.96
1842.02	1088.92
1842.36	1150.48
1842.71	1258.16
1843.05	1216.36
1843.39	1131.6
1843.73	1084.2
1844.08	1038.08
1844.42	1047.24
1844.76	1171.2
1845.1	1258.84
1845.45	1256.88
1845.79	1258.52
1846.13	1251.6
1846.47	1228.24
1846.81	1180.36
1847.16	1150.72
1847.5	1125.68
1847.84	1123.68
1848.18	1125.56
1848.53	1167.28
1848.87	1237.6
1849.21	1272.68
1849.55	1267.12
1849.89	1247.56
1850.24	1226.44
1850.58	1205.88
1850.92	1175.48
1851.26	1152.56
1851.6	1127
1851.95	1112.24
1852.29	1101.68
1852.63	1094.48
1852.97	1085.92
1853.31	1066.2
1853.66	1024.96
1854	983.72
1854.34	952.52
1854.68	933.92
1855.02	927.16
1855.36	947.52
1855.71	958.16
1856.05	958.84
1856.39	943.32
1856.73	924.32
1857.07	906.56
1857.41	885.52
1857.76	890.84
1858.1	891.44
1858.44	891.32
1858.78	890.44
1859.12	881.96
1859.46	870
1859.8	842.92
1860.15	806.64
1860.49	735.08
1860.83	716.48
1861.17	707.36
1861.51	706.32
1861.85	720.32
1862.19	735.64
1862.53	707
1862.88	684.56
1863.22	674.16
1863.56	665.6
1863.9	663.96
1864.24	677.96
1864.58	669.64
1864.92	662.6
1865.26	647.4
1865.6	658.08
1865.94	650.52
1866.29	634.88
1866.63	619.04
1866.97	602.68
1867.31	578.92
1867.65	543.92
1867.99	520.28
1868.33	503.56
1868.67	478.28
1869.01	449.8
1869.35	422.68
1869.69	405.96
1870.03	391.24
1870.37	386.24
1870.72	403.84
1871.06	436.08
1871.4	449.48
1871.74	452.68
1872.08	446.16
1872.42	416.2
1872.76	388.68
1873.1	381.56
1873.44	375.76
1873.78	377.44
1874.12	384
1874.46	373.96
1874.8	342.52
1875.14	314.52
1875.48	305.12
1875.82	294.48
1876.16	288.36
1876.5	291.96
1876.84	305.76
1877.18	309.76
1877.52	316.48
1877.86	329.76
1878.2	333.48
1878.54	324.28
1878.88	315.12
1879.22	306.76
1879.56	297.36
1879.9	286.56
1880.24	277.12
1880.58	259.44
1880.92	244
1881.26	235.64
1881.6	235.56
1881.94	235.2
1882.28	232.68
1882.62	224.56
1882.96	206.68
1883.3	193.56
1883.64	188.84
1883.98	190.6
1884.32	201.56
1884.66	217.04
1885	222.48
1885.34	215.88
1885.68	205.44
1886.02	196.84
1886.36	191.8
1886.7	188.68
1887.04	189.12
1887.38	193.44
1887.72	193.8
1888.06	188.12
1888.39	184.04
1888.73	180
1889.07	166.88
1889.41	155.2
1889.75	147.56
1890.09	128
1890.43	112.16
1890.77	119.6
1891.11	124.04
1891.45	130.4
1891.79	146.4
1892.13	160.24
1892.47	156.48
1892.8	155.64
1893.14	151.2
1893.48	143.52
1893.82	130.24
1894.16	126.04
1894.5	122.84
1894.84	122.12
1895.18	125.32
1895.52	131.08
1895.86	129.68
1896.19	126.76
1896.53	123.88
1896.87	116.52
1897.21	114.24
1897.55	113.36
1897.89	111.32
1898.23	104.08
1898.57	103.64
1898.9	100.4
1899.24	98.04
1899.58	96.2
1899.92	98.16
1900.26	97.12
1900.6	95.32
1900.94	92.96
1901.27	89.48
1901.61	88.8
1901.95	86.44
1902.29	84.12
1902.63	81.72
1902.97	82.36
1903.3	79.28
1903.64	75.16
1903.98	73.76
1904.32	71.36
1904.66	68.56
1905	67.48
1905.33	69.48
1905.67	67.44
1906.01	69.04
1906.35	66.32
1906.69	63.68
1907.02	62.16
1907.36	62.52
1907.7	60.76
1908.04	62.04
1908.38	62.04
1908.71	61
1909.05	57.64
1909.39	55.84
1909.73	53.32
1910.07	52.76
1910.4	52.2
1910.74	52.56
1911.08	53.16
1911.42	52
1911.76	51.16
1912.09	51.56
1912.43	52.04
1912.77	50.6
1913.11	51.6
1913.44	51.4
1913.78	49.24
1914.12	48.08
1914.46	46.76
1914.79	46.16
1915.13	45.24
1915.47	45.6
1915.81	44.88
1916.14	43.24
1916.48	42.72
1916.82	43.84
1917.16	41.6
1917.49	41.4
1917.83	42.04
1918.17	41.44
1918.5	40.56
1918.84	43.12
1919.18	43.24
1919.52	42.52
1919.85	41.6
1920.19	40.76
1920.53	40.12
1920.87	39.56
1921.2	41.48
1921.54	43.44
1921.88	43.2
1922.21	41.8
1922.55	41.84
1922.89	39.44
1923.22	38.32
1923.56	38.12
1923.9	39.04
1924.23	38.6
1924.57	38.44
1924.91	40.24
1925.25	40.16
1925.58	42.08
1925.92	44.36
1926.26	47.2
1926.59	46.48
1926.93	47.8
1927.27	44.84
1927.6	43.48
1927.94	42
1928.28	41.12
1928.61	39.28
1928.95	40.64
1929.29	40.08
1929.62	39.44
1929.96	38.88
1930.29	40
1930.63	38.64
1930.97	38.2
1931.3	40.72
1931.64	41.4
1931.98	41.4
1932.31	43.4
1932.65	42.8
1932.99	42.36
1933.32	41.96
1933.66	41.8
1933.99	40.48
1934.33	42
1934.67	42.32
1935	41.84
1935.34	43.24
1935.67	43.6
1936.01	43.28
1936.35	42.56
1936.68	41.96
1937.02	40.2
1937.35	41.4
1937.69	41.88
1938.03	40.52
1938.36	40.92
1938.7	43.52
1939.03	42.32
1939.37	41.92
1939.7	43.52
1940.04	44.44
1940.38	42.88
1940.71	42.76
1941.05	42.12
1941.38	41.32
1941.72	42.08
1942.05	41.04
1942.39	40.4
1942.73	43.2
1943.06	44.52
1943.4	42.68
1943.73	44.08
1944.07	45.36
1944.4	42.04
1944.74	41.56
1945.07	43.32
1945.41	41.12
1945.74	40.32
1946.08	41.2
1946.42	40
1946.75	38.56
1947.09	38.6
1947.42	37.72
1947.76	35.68
1948.09	36.04
1948.43	35.72
1948.76	37.04
1949.1	35.36
1949.43	36.68
1949.77	33.48
1950.1	33.12
1950.44	31.76
1950.77	32.8
1951.11	31.4
1951.44	32.04
1951.78	31.64
1952.11	31.96
1952.45	30.32
1952.78	31.64
1953.12	31.52
1953.45	30.64
1953.79	29.32
1954.12	31.16
1954.46	28.68
1954.79	28.76
1955.12	29.28
1955.46	29
1955.79	26.4
1956.13	25.68
1956.46	24.68
1956.8	22.12
1957.13	20.04
1957.47	21.64
1957.8	21.36
1958.14	20.68
1958.47	20.36
1958.8	21.76
1959.14	19.16
1959.47	19.28
1959.81	18.88
1960.14	18.8
1960.48	15.44
1960.81	14.56
1961.14	14.6
1961.48	12.88
1961.81	13.72
1962.15	13.92
1962.48	15.2
1962.82	12.28
1963.15	12.64
1963.48	11.48
1963.82	12.24
1964.15	9.64
1964.49	10.08
1964.82	9.68
1965.15	8.76
1965.49	7.08
1965.82	7
1966.16	6.44
1966.49	5.36
1966.82	4.32
1967.16	4.8
1967.49	4.52
1967.83	5.24
1968.16	5.12
1968.49	4.6
1968.83	3.72
1969.16	3.64
1969.49	2.8
1969.83	2.88
1970.16	3.08
1970.49	3.2
1970.83	3.36
1971.16	2.8
1971.5	1.84
1971.83	1.64
1972.16	1.08
1972.5	0.64
1972.83	0.48
1973.16	0.8
1973.5	0.56
1973.83	0.48
1974.16	0.4
1974.5	0.2
1974.83	0.16
1975.16	0.2
1975.5	0.2
1975.83	0.08
1976.16	0.48
1976.49	0.72
1976.83	0.72
1977.16	0.76
1977.49	0.68
1977.83	0.48
1978.16	0.36
1978.49	0.28
1978.83	0.72
1979.16	0.96
1979.49	1
1979.83	0.96
1980.16	0.96
1980.49	0.48
1980.82	0.48
1981.16	0.72
1981.49	0.68
1981.82	0.48
1982.15	0.72
1982.49	0.4
1982.82	0.44
1983.15	0.36
1983.49	0.56
1983.82	0.48
1984.15	0.72
1984.48	0.44
1984.82	0.52
1985.15	0.64
1985.48	0.64
1985.81	0.44
1986.15	0.68
1986.48	1.08
1986.81	1
1987.14	0.92
1987.48	1.4
1987.81	1.6
1988.14	1.2
1988.47	1.36
1988.81	1.4
1989.14	1.68
1989.47	1.56
1989.8	2.2
1990.13	3.04
1990.47	4.4
1990.8	4.28
1991.13	4.04
1991.46	3.8
1991.79	2.56
1992.13	1.16
1992.46	1.24
1992.79	3.36
1993.12	3.04
1993.45	3.48
1993.79	5
1994.12	6.08
1994.45	4.6
1994.78	5.96
1995.11	6.32
1995.45	5.76
1995.78	5.84
1996.11	6.36
1996.44	7.2
1996.77	9.04
1997.1	9.84
1997.44	10.4
1997.77	11.36
1998.1	9.92
1998.43	10.4
1998.76	11.24
1999.09	11.2
1999.43	10.24
1999.76	11.92
2000.09	10.8
2000.42	9.48
2000.75	8
2001.08	9.72
2001.41	9.8
2001.75	9.4
2002.08	11.52
2002.41	13.64
2002.74	13.6
2003.07	14.84
2003.4	17.4
2003.73	17.64
2004.06	18.44
2004.4	18.56
2004.73	17.56
2005.06	16.2
2005.39	15.8
2005.72	14.6
2006.05	15.36
2006.38	16.96
2006.71	17.04
2007.04	17.32
2007.37	17.8
2007.71	18.08
2008.04	17.32
2008.37	17.96
2008.7	17.68
2009.03	17.44
2009.36	16.2
2009.69	15.48
2010.02	15.2
2010.35	14.4
2010.68	15.76
2011.01	17.96
2011.34	17.92
2011.67	19.52
2012.01	21.56
2012.34	20.44
2012.67	18.2
2013	17.88
2013.33	15.8
2013.66	14.6
2013.99	14.52
2014.32	13.76
2014.65	13.68
2014.98	13.28
2015.31	13.56
2015.64	14.8
2015.97	15.76
2016.3	15.72
2016.63	15.44
2016.96	16
2017.29	13.64
2017.62	14.36
2017.95	14.6
2018.28	14.64
2018.61	13.16
2018.94	12.4
2019.27	11.32
2019.6	10.32
2019.93	10.92
2020.26	10.84
2020.59	11.56
2020.92	10.4
2021.25	10.08
2021.58	9.56
2021.91	8.56
2022.24	8
2022.57	8.44
2022.9	9.12
2023.23	9.76
2023.56	10.16
2023.89	10.88
2024.22	10.44
2024.55	10.48
2024.88	8.84
2025.21	8.64
2025.54	8.64
2025.87	8.28
2026.2	7.04
2026.53	7.2
2026.86	7.16
2027.19	6.32
2027.52	5.56
2027.85	5.64
2028.18	5.6
2028.51	5.24
2028.84	5.2
2029.16	6.28
2029.49	6.16
2029.82	5.8
2030.15	4.92
2030.48	4.44
2030.81	4.36
2031.14	4.2
2031.47	4.24
2031.8	4.04
2032.13	4.4
2032.46	3.48
2032.79	3.52
2033.12	3.52
2033.44	3.76
2033.77	3.4
2034.1	3.4
2034.43	3.92
2034.76	3.56
2035.09	3.6
2035.42	3.12
2035.75	2.88
2036.08	1.64
2036.41	1.36
2036.73	1.56
2037.06	1.76
2037.39	1.68
2037.72	2.24
2038.05	2.4
2038.38	2.36
2038.71	2.84
2039.04	2.6
2039.36	2.2
2039.69	2.16
2040.02	1.08
2040.35	0.48
2040.68	0.72
2041.01	1
2041.34	1.04
2041.66	1.76
2041.99	1.76
2042.32	1.64
2042.65	1.48
2042.98	1.32
2043.31	1.04
2043.63	1.4
2043.96	1.48
2044.29	1.52
2044.62	1.96
2044.95	2.6
2045.28	2.32
2045.6	2.2
2045.93	2.04
2046.26	2.16
2046.59	1.44
2046.92	1.2
2047.24	1.44
2047.57	1.52
2047.9	1.32
2048.23	1.68
2048.56	1.72
2048.88	2.12
2049.21	2.04
2049.54	1.8
2049.87	1.56
2050.2	1.36
2050.52	1
2050.85	0.8
2051.18	0.52
2051.51	1.04
2051.83	1.04
2052.16	0.92
2052.49	1.76
2052.82	1.76
2053.15	1.24
2053.47	1.72
2053.8	1.72
2054.13	1.24
2054.46	1.24
2054.78	1.68
2055.11	1.36
2055.44	1.36
2055.77	1.36
2056.09	1.52
2056.42	1.2
2056.75	1.6
2057.08	1.56
2057.4	1.4
2057.73	1.64
2058.06	1.48
2058.38	1.2
2058.71	1.4
2059.04	1.28
2059.37	1.12
2059.69	1.56
2060.02	1.56
2060.35	1.28
2060.67	1.24
2061	1.28
2061.33	0.8
2061.66	0.72
2061.98	0.88
2062.31	1.12
2062.64	1.08
2062.96	1.04
2063.29	1.16
2063.62	1
2063.94	0.72
2064.27	0.68
2064.6	-0.2
2064.92	-0.52
2065.25	-0.28
2065.58	-8.21554e-17
2065.91	-0.16
2066.23	0.8
2066.56	0.8
2066.89	0.68
2067.21	0.72
2067.54	1.16
2067.87	1
2068.19	1.12
2068.52	0.96
2068.84	0.6
2069.17	0.24
2069.5	0.76
2069.82	0.48
2070.15	0.68
2070.48	1.28
2070.8	1.44
2071.13	1.08
2071.46	1.48
2071.78	1.56
2072.11	1.12
2072.43	0.84
2072.76	0.68
2073.09	1.04
2073.41	1.12
2073.74	1.44
2074.07	2.44
2074.39	2.92
2074.72	2.52
2075.04	3.04
2075.37	3.08
2075.7	2.24
2076.02	2.08
2076.35	1.92
2076.67	1.44
2077	1.12
2077.33	1.48
2077.65	1.6
2077.98	1.76
2078.3	1.44
2078.63	1.96
2078.95	1.6
2079.28	1.56
2079.61	0.84
2079.93	1
2080.26	0.76
2080.58	0.96
2080.91	0.72
2081.23	1.6
2081.56	1.56
2081.89	1.36
2082.21	1.36
2082.54	1.4
2082.86	1.2
2083.19	1.52
2083.51	1.4
2083.84	1.32
2084.16	1.12
2084.49	1.44
2084.81	1.08
2085.14	1.32
2085.46	1.36
2085.79	1.6
2086.12	1.2
2086.44	1.44
2086.77	1.28
2087.09	1
2087.42	1.08
2087.74	1
2088.07	0.8
2088.39	0.68
2088.72	0.92
2089.04	0.88
2089.37	1
2089.69	0.84
2090.02	1
2090.34	0.36
2090.67	0.08
2090.99	-2.2
2091.32	-2
2091.64	-2.28
2091.97	-1.8
2092.29	-1.8
2092.62	0.6
2092.94	0.64
2093.26	0.8
2093.59	1.12
2093.91	0.08
2094.24	-0.16
2094.56	-0.44
2094.89	-0.6
2095.21	-0.84
2095.54	0.28
2095.86	0.28
2096.19	0.36
2096.51	0.36
2096.84	0.52
2097.16	0.6
2097.48	0.64
2097.81	0.76
2098.13	0.76
2098.46	0
2098.78	-0.12
2099.11	-0.12
2099.43	-0.2
2099.75	0.16
2100.08	0.84
2100.4	1.04
2100.73	1
2101.05	0.88
2101.38	0.76
2101.7	0.48
2102.02	0.4
2102.35	0.52
2102.67	0.6
2103	0.4
2103.32	0.4
2103.64	0.24
2103.97	0.52
2104.29	0.68
2104.62	0.64
2104.94	0.76
2105.26	0.24
2105.59	-0.16
2105.91	-0.2
2106.23	-0.2
2106.56	-0.24
2106.88	0.28
2107.21	0.64
2107.53	0.44
2107.85	0.6
2108.18	0.52
2108.5	0.72
2108.82	0.56
2109.15	0.64
2109.47	0.48
2109.79	1.04
2110.12	0.84
2110.44	0.64
2110.76	0.72
2111.09	0.72
2111.41	0.52
2111.73	1
2112.06	1.2
2112.38	1.04
2112.7	0.44
2113.03	1.04
2113.35	0.6
2113.67	0.52
2114	0.6
2114.32	1.24
2114.64	0.28
2114.97	0.56
2115.29	0.44
2115.61	0.48
2115.94	0.44
2116.26	0.68
2116.58	0.6
2116.91	-0.4
2117.23	-0.52
2117.55	-0.2
2117.87	-0.44
2118.2	-0.68
2118.52	0.56
2118.84	0.68
2119.17	0.68
2119.49	0.8
2119.81	0.8
2120.13	0.92
2120.46	1.2
2120.78	-0.04
2121.1	0.12
2121.42	0.12
2121.75	-0.2
2122.07	-0.44
2122.39	0.64
2122.72	0.56
2123.04	0.76
2123.36	1.12
2123.68	1.28
2124.01	1.48
2124.33	1.28
2124.65	1.24
2124.97	0.84
2125.29	1.04
2125.62	1.16
2125.94	1.16
2126.26	1.16
2126.58	1.32
2126.91	0.04
2127.23	-0.44
2127.55	-0.36
2127.87	-0.32
2128.2	-0.48
2128.52	0.72
2128.84	0.88
2129.16	0.84
2129.48	0.76
2129.81	0.76
2130.13	0.36
2130.45	0.44
2130.77	0.4
2131.09	0.44
2131.42	0.56
2131.74	0.52
2132.06	0.32
2132.38	0.32
2132.7	0.16
2133.02	0.12
2133.35	0.12
2133.67	0.32
2133.99	0.36
2134.31	-0.24
2134.63	-0.32
2134.96	0.16
2135.28	-0.08
2135.6	-0.04
2135.92	0.64
2136.24	0.72
2136.56	0.32
2136.88	0.36
2137.21	0.32
2137.53	0.24
2137.85	0.2
2138.17	-0.48
2138.49	-0.52
2138.81	-0.16
2139.13	-0.04
2139.46	-0.04
2139.78	0.6
2140.1	0.6
2140.42	0.2
2140.74	0.44
2141.06	0.4
2141.38	0.44
2141.7	0.52
2142.03	0.72
2142.35	0.52
2142.67	1.08
2142.99	1
2143.31	1.2
2143.63	1.12
2143.95	0.96
2144.27	0.48
2144.59	0.6
2144.91	0.4
2145.24	0.84
2145.56	0.88
2145.88	1.16
2146.2	1.12
2146.52	1.2
2146.84	0.64
2147.16	0.6
2147.48	0.28
2147.8	0.48
2148.12	0.32
2148.44	0.32
2148.76	0.32
2149.08	0.44
2149.41	0.16
2149.73	0.16
2150.05	0.2
2150.37	0.2
2150.69	0.16
2151.01	0.2
2151.33	0.2
2151.65	0.16
2151.97	0.16
2152.29	0.16
2152.61	-0.2
2152.93	-0.2
2153.25	-0.2
2153.57	-0.2
2153.89	-0.16
2154.21	-0.24
2154.53	-0.08
2154.85	-0.08
2155.17	-0.08
2155.49	0.08
2155.81	0.56
2156.13	0.6
2156.45	0.6
2156.77	0.6
2157.09	0.56
2157.41	0.6
2157.73	0.48
2158.05	0.88
2158.37	1.08
2158.69	0.8
2159.01	0.68
2159.33	0.6
2159.65	0.2
2159.97	0
2160.29	0.48
2160.61	0.48
2160.93	0.52
2161.25	0.68
2161.57	0.68
2161.89	0.32
2162.21	0.44
2162.53	0.48
2162.85	-0.24
2163.17	-0.2
2163.49	-0.32
2163.81	-0.28
2164.13	-0.28
2164.45	-0.32
2164.77	-0.36
2165.08	-0.36
2165.4	-0.48
2165.72	-0.36
2166.04	0.24
2166.36	0.36
2166.68	0.36
2167	0.32
2167.32	0.12
2167.64	0.12
2167.96	0.04
2168.28	0.04
2168.6	0.2
2168.92	0.2
2169.24	0.2
2169.55	0.16
2169.87	0.16
2170.19	0
2170.51	0.04
2170.83	0.24
2171.15	0.32
2171.47	0.48
2171.79	0.68
2172.11	0.8
2172.43	0.64
2172.74	0.76
2173.06	0.8
2173.38	1.24
2173.7	1.08
2174.02	1.04
2174.34	0.84
2174.66	0.64
2174.98	0
2175.29	0.04
2175.61	0.04
2175.93	0.08
2176.25	0.08
2176.57	0.36
2176.89	0.4
2177.21	0.4
2177.52	0.52
2177.84	0.52
2178.16	0.24
2178.48	0.48
2178.8	0.48
2179.12	0.48
2179.43	0.68
2179.75	-0.24
2180.07	-0.52
2180.39	-0.24
2180.71	-0.4
2181.03	-0.6
2181.34	0.44
2181.66	0.4
2181.98	0.16
2182.3	0.24
2182.62	0.48
2182.93	-0.04
2183.25	2.4425e-17
2183.57	-0.04
2183.89	-0.04
2184.21	-0.28
2184.52	0.24
2184.84	0.32
2185.16	0.44
2185.48	0.36
2185.8	0.36
2186.11	0.24
2186.43	0.12
2186.75	0.08
2187.07	-0.16
2187.39	-0.8
2187.7	-0.64
2188.02	-1.24
2188.34	-1.2
2188.66	-0.76
2188.97	-0.08
2189.29	-0.24
2189.61	0.68
2189.93	0.64
2190.24	0.44
2190.56	0.64
2190.88	0.64
2191.2	0.32
2191.51	0.24
2191.83	0.36
2192.15	0.12
2192.47	0.28
2192.78	0.36
2193.1	0.36
2193.42	0.24
2193.74	0.28
2194.05	0.12
2194.37	0.04
2194.69	0.28
2195	0.28
2195.32	0.28
2195.64	0.28
2195.96	0.4
2196.27	0.2
2196.59	-0.28
2196.91	0.08
2197.22	0.48
2197.54	0.56
2197.86	0.56
2198.18	1.04
2198.49	0.64
2198.81	0.24
2199.13	0.04
2199.44	0.12
2199.76	0.12
2200.08	0.24
2200.39	0.24
2200.71	0.24
2201.03	0.12
2201.34	0.12
2201.66	0.52
2201.98	0.6
2202.29	0.64
2202.61	0.64
2202.93	0.64
2203.24	0.24
2203.56	0.44
2203.88	0.4
2204.19	0.4
2204.51	0.44
2204.83	0.32
2205.14	0.16
2205.46	0.32
2205.78	0.32
2206.09	0.76
2206.41	0.56
2206.72	0.24
2207.04	0.16
2207.36	-0.24
2207.67	-0.52
2207.99	-0.32
2208.31	-0.12
2208.62	-0.2
2208.94	0.2
2209.25	0.08
2209.57	0.08
2209.89	0.32
2210.2	0.32
2210.52	0.32
2210.83	0.24
2211.15	0.24
2211.47	0.28
2211.78	0.32
2212.1	-8.4378e-17
2212.41	0.08
2212.73	0.08
2213.05	-0.04
2213.36	0.44
2213.68	0.92
2213.99	0.84
2214.31	0.84
2214.62	0.84
2214.94	0.76
2215.26	0.6
2215.57	0.6
2215.89	0.6
2216.2	0.44
2216.52	0.16
2216.83	0.32
2217.15	0.32
2217.46	0.4
2217.78	0.44
2218.1	0.08
2218.41	-0.08
2218.73	-0.08
2219.04	-0.16
2219.36	-0.16
2219.67	0.12
2219.99	0.16
2220.3	0.4
2220.62	0.44
2220.93	0.52
2221.25	0.6
2221.56	0.56
2221.88	0.32
2222.19	0.28
2222.51	0.24
2222.82	-1.32
2223.14	-1.32
2223.45	-1.32
2223.77	-1.2
2224.08	-1.28
2224.4	0.48
2224.71	0.48
2225.03	0.48
2225.34	0.36
2225.66	-0.76
2225.97	-1.04
2226.29	-1.04
2226.6	-1.04
2226.92	-1.04
2227.23	0.12
2227.55	0.16
2227.86	0.16
2228.18	0.2
2228.49	0.36
2228.81	0.32
2229.12	0.2
2229.44	0.2
2229.75	0.4
2230.07	0.4
2230.38	0.4
2230.69	0.4
2231.01	0.4
2231.32	0.16
2231.64	0.2
2231.95	0.36
2232.27	0.36
2232.58	0.52
2232.9	0.68
2233.21	0.48
2233.52	0.32
2233.84	0.32
2234.15	0.2
2234.47	0.04
2234.78	0.16
2235.1	0.16
2235.41	0.16
2235.72	0.2
2236.04	0.2
2236.35	0.08
2236.67	-0.52
2236.98	-0.4
2237.29	-0.48
2237.61	-0.36
2237.92	-0.36
2238.24	0.48
2238.55	0.4
2238.86	0.4
2239.18	0.28
2239.49	-0.52
2239.8	-0.52
2240.12	-0.16
2240.43	-0.16
2240.75	-0.08
2241.06	0.72
2241.37	0.64
2241.69	0.24
2242	0.32
2242.31	0.48
2242.63	0.48
2242.94	0.32
2243.26	-0.28
2243.57	-0.28
2243.88	-0.52
2244.2	-0.52
2244.51	-0.44
2244.82	0.16
2245.14	0.08
2245.45	0.16
2245.76	0.16
2246.08	0.08
2246.39	0.4
2246.7	0.4
2247.02	0.32
2247.33	0.32
2247.64	0.48
2247.96	0.2
2248.27	0.28
2248.58	-0.72
2248.9	-0.72
2249.21	-0.88
2249.52	-0.76
2249.83	-0.84
2250.15	0.24
2250.46	0.24
2250.77	0.28
2251.09	0.12
2251.4	0.36
2251.71	0.32
2252.03	0.32
2252.34	0.44
2252.65	0.44
2252.96	0.28
2253.28	0.24
2253.59	0.24
2253.9	0.08
2254.21	0.08
2254.53	0.28
2254.84	0.16
2255.15	0.16
2255.47	0.16
2255.78	0.2
2256.09	-0.08
2256.4	0.28
2256.72	0.28
2257.03	0.4
2257.34	0.48
2257.65	0.48
2257.97	0.24
2258.28	0.28
2258.59	0.28
2258.9	0.44
2259.22	0.44
2259.53	0.44
2259.84	0.48
2260.15	0.44
2260.46	0.24
2260.78	0.24
2261.09	0.24
2261.4	0.16
2261.71	0.16
2262.03	0.08
2262.34	0.08
2262.65	0.08
2262.96	0.32
2263.27	0.28
2263.59	0.28
2263.9	0.36
2264.21	0.36
2264.52	0.12
2264.83	0.24
2265.15	0.52
2265.46	0.44
2265.77	0.44
2266.08	0.52
2266.39	0.48
2266.7	0.44
2267.02	0.72
2267.33	0.44
2267.64	0.52
2267.95	0.4
2268.26	0.16
2268.57	-0.12
2268.89	0.24
2269.2	0.08
2269.51	0.4
2269.82	0.6
2270.13	1.16
2270.44	1.28
2270.76	0.96
2271.07	0.64
2271.38	-0.16
2271.69	-0.28
2272	-0.4
2272.31	-0.08
2272.62	-0.44
2272.93	0.52
2273.25	0.08
2273.56	4.21755e-17
2273.87	4.21755e-17
2274.18	0.36
2274.49	0
2274.8	0
2275.11	0.08
2275.42	0.08
2275.74	0.08
2276.05	0.08
2276.36	0.08
2276.67	0
2276.98	0
2277.29	0
2277.6	0.16
2277.91	0.2
2278.22	-0.2
2278.53	-0.2
2278.85	-0.2
2279.16	-1.24
2279.47	-1.28
2279.78	-0.88
2280.09	-0.88
2280.4	-0.84
2280.71	0.08
2281.02	0.08
2281.33	0.28
2281.64	0.32
2281.95	0.28
2282.26	0.24
2282.57	0.24
2282.88	0.04
2283.19	0
2283.5	0.24
2283.82	0.4
2284.13	0.48
2284.44	0.48
2284.75	-0.12
2285.06	-0.36
2285.37	-0.52
2285.68	-0.36
2285.99	-0.36
2286.3	0.44
2286.61	0.44
2286.92	0.6
2287.23	0.64
2287.54	0.84
2287.85	0.64
2288.16	0.88
2288.47	0.84
2288.78	0.64
2289.09	0.44
2289.4	0.88
2289.71	0.72
2290.02	0.6
2290.33	0.52
2290.64	0.6
2290.95	-0.04
2291.26	-0.12
2291.57	-0.12
2291.88	-0.44
2292.19	-0.52
2292.5	-0.32
2292.81	-0.32
2293.12	-0.32
2293.43	0
2293.74	0
2294.05	0
2294.36	0
2294.67	0
2294.98	0
2295.29	0
2295.6	0
2295.91	0
2296.21	0
2296.52	0
2296.83	0
2297.14	0
2297.45	0
2297.76	0
2298.07	0
2298.38	0
2298.69	0
2299	0
2299.31	0
2299.62	0
2299.93	0
2300.24	0
2300.55	0
2300.85	0
2301.16	0
2301.47	0
2301.78	0
2302.09	0
2302.4	0
2302.71	0
2303.02	0
2303.33	0
2303.64	0
2303.94	0
2304.25	0
2304.56	0
2304.87	0
2305.18	0
2305.49	0
2305.8	0
2306.11	0
2306.42	0
2306.72	0
2307.03	0
2307.34	0
2307.65	0
2307.96	0
2308.27	0
2308.58	0
2308.88	0
2309.19	0
2309.5	0
2309.81	0
2310.12	0
2310.43	0
2310.74	0
2311.04	0
2311.35	0
2311.66	0
2311.97	0
2312.28	0
2312.59	0
2312.89	0
2313.2	0
2313.51	0
2313.82	0
2314.13	0
2314.43	0
2314.74	0
2315.05	0
2315.36	0
2315.67	0
2315.97	0
2316.28	0
2316.59	0
2316.9	0
2317.21	0
2317.51	0
2317.82	0
2318.13	0
2318.44	0
2318.75	0
2319.05	0
2319.36	0
2319.67	0
2319.98	0
2320.28	0
2320.59	0
2320.9	0
2321.21	0
2321.51	0
2321.82	0
2322.13	0
2322.44	0
2322.74	0
2323.05	0
2323.36	0
2323.67	0
2323.97	0
2324.28	0
2324.59	0
2324.9	0
2325.2	0
2325.51	0
2325.82	0
2326.13	0
2326.43	0
2326.74	0
2327.05	0
2327.35	0
2327.66	0
2327.97	0
2328.27	0
2328.58	0
2328.89	0
2329.2	0
2329.5	0
2329.81	0
2330.12	0
2330.42	0
2330.73	0
2331.04	0
2331.34	0
2331.65	0
2331.96	0
2332.26	0
2332.57	0
2332.88	0
2333.18	0
2333.49	0
2333.8	0
2334.1	0
2334.41	0
2334.72	0
2335.02	0
2335.33	0
2335.64	0
2335.94	0
2336.25	0
2336.56	0
2336.86	0
2337.17	0
2337.48	0
2337.78	0
2338.09	0
2338.39	0
2338.7	0
2339.01	0
2339.31	0
2339.62	0
2339.93	0
2340.23	0
2340.54	0
2340.84	0
2341.15	0
2341.46	0
2341.76	0
2342.07	0
2342.37	0
2342.68	0
2342.99	0
2343.29	0
2343.6	0
2343.9	0
2344.21	0
2344.51	0
2344.82	0
2345.13	0
2345.43	0
2345.74	0
2346.04	0
2346.35	0
2346.65	0
2346.96	0
2347.27	0
2347.57	0
2347.88	0
2348.18	0
2348.49	0
2348.79	0
2349.1	0
2349.4	0
2349.71	0
2350.01	0
2350.32	0
2350.63	0
2350.93	0
2351.24	0
2351.54	0
2351.85	0
2352.15	0
2352.46	0
2352.76	0
2353.07	0
2353.37	0
2353.68	0
2353.98	0
2354.29	0
2354.59	0
2354.9	0
2355.2	0
2355.51	0
2355.81	0
2356.12	0
2356.42	0
2356.73	0
2357.03	0
2357.34	0
2357.64	0
2357.95	0
2358.25	0
2358.55	0
2358.86	0
2359.16	0
2359.47	0
2359.77	0
2360.08	0
2360.38	0
2360.69	0
2360.99	0
2361.3	0
2361.6	0
2361.9	0
2362.21	0
2362.51	0
2362.82	0
2363.12	0
2363.43	0
2363.73	0
2364.04	0
2364.34	0
2364.64	0
2364.95	0
2365.25	0
2365.56	0
2365.86	0
2366.16	0
2366.47	0
2366.77	0
2367.08	0
2367.38	0
2367.68	0
2367.99	0
2368.29	0
2368.6	0
2368.9	0
2369.2	0
2369.51	0
2369.81	0
2370.12	0
2370.42	0
2370.72	0
2371.03	0
2371.33	0
2371.63	0
2371.94	0
2372.24	0
2372.55	0
2372.85	0
2373.15	0
2373.46	0
2373.76	0
2374.06	0
2374.37	0
2374.67	0
2374.97	0
2375.28	0
2375.58	0
2375.88	0
2376.19	0
2376.49	0
2376.79	0
2377.1	0
2377.4	0
2377.7	0
2378.01	0
2378.31	0
2378.61	0
2378.92	0
2379.22	0
2379.52	0
2379.82	0
2380.13	0
2380.43	0
2380.73	0
2381.04	0
2381.34	0
2381.64	0
2381.95	0
2382.25	0
2382.55	0
2382.85	0
2383.16	0
2383.46	0
2383.76	0
2384.06	0
2384.37	0
2384.67	0
2384.97	0
2385.28	0
2385.58	0
2385.88	0
2386.18	0
2386.49	0
2386.79	0
2387.09	0
2387.39	0
2387.69	0
2388	0
2388.3	0
2388.6	0
2388.9	0
2389.21	0
2389.51	0
2389.81	0
2390.11	0
2390.42	0
2390.72	0
2391.02	0
2391.32	0
2391.62	0
2391.93	0
2392.23	0
2392.53	0
2392.83	0
2393.13	0
2393.44	0
2393.74	0
2394.04	0
2394.34	0
2394.64	0
2394.95	0
2395.25	0
2395.55	0
2395.85	0
2396.15	0
2396.45	0
2396.76	0
2397.06	0
2397.36	0
2397.66	0
2397.96	0
2398.26	0
2398.57	0
2398.87	0
2399.17	0
2399.47	0
2399.77	0
2400.07	0
2400.37	0
2400.68	0
2400.98	0
2401.28	0
2401.58	0
2401.88	0
2402.18	0
2402.48	0
2402.79	0
2403.09	0
2403.39	0
2403.69	0
2403.99	0
2404.29	0
2404.59	0
2404.89	0
2405.19	0
2405.5	0
2405.8	0
2406.1	0
2406.4	0
2406.7	0
2407	0
2407.3	0
2407.6	0
2407.9	0
2408.2	0
2408.5	0
2408.8	0
2409.11	0
2409.41	0
2409.71	0
2410.01	0
2410.31	0
2410.61	0
2410.91	0
2411.21	0
2411.51	0
2411.81	0
2412.11	0
2412.41	0
2412.71	0
2413.01	0
2413.31	0
2413.61	0
2413.91	0
2414.21	0
2414.51	0
2414.81	0
2415.12	0
2415.42	0
2415.72	0
2416.02	0
2416.32	0
2416.62	0
2416.92	0
2417.22	0
2417.52	0
2417.82	0
2418.12	0
2418.42	0
2418.72	0
2419.02	0
2419.32	0
2419.62	0
2419.92	0
2420.22	0
2420.52	0
2420.82	0
2421.12	0
2421.42	0
2421.71	0
2422.01	0
2422.31	0
2422.61	0
2422.91	0
2423.21	0
2423.51	0
2423.81	0
2424.11	0
2424.41	0
2424.71	0
2425.01	0
2425.31	0
2425.61	0
2425.91	0
2426.21	0
2426.51	0
2426.81	0
2427.11	0
2427.41	0
2427.7	0
2428	0
2428.3	0
2428.6	0
2428.9	0
2429.2	0
2429.5	0
2429.8	0
2430.1	0
2430.4	0
2430.7	0
2430.99	0
2431.29	0
2431.59	0
2431.89	0
2432.19	0
2432.49	0
2432.79	0
2433.09	0
2433.39	0
2433.68	0
2433.98	0
2434.28	0
2434.58	0
2434.88	0
2435.18	0
2435.48	0
2435.78	0
2436.07	0
2436.37	0
2436.67	0
2436.97	0
2437.27	0
2437.57	0
2437.86	0
2438.16	0
2438.46	0
2438.76	0
2439.06	0
2439.36	0
2439.66	0
2439.95	0
2440.25	0
2440.55	0
2440.85	0
2441.15	0
2441.44	0
2441.74	0
2442.04	0
2442.34	0
2442.64	0
2442.93	0
2443.23	0
2443.53	0
2443.83	0
2444.13	0
2444.42	0
2444.72	0
2445.02	0
2445.32	0
2445.62	0
2445.91	0
2446.21	0
2446.51	0
2446.81	0
2447.1	0
2447.4	0
2447.7	0
2448	0
2448.3	0
2448.59	0
2448.89	0
2449.19	0
2449.49	0
2449.78	0
2450.08	0
2450.38	0
2450.68	0
2450.97	0
2451.27	0
2451.57	0
2451.87	0
2452.16	0
2452.46	0
2452.76	0
2453.05	0
2453.35	0
2453.65	0
2453.95	0
2454.24	0
2454.54	0
2454.84	0
2455.13	0
2455.43	0
2455.73	0
2456.03	0
2456.32	0
2456.62	0
2456.92	0
2457.21	0
2457.51	0
2457.81	0
2458.1	0
2458.4	0
2458.7	0
2458.99	0
2459.29	0
2459.59	0
2459.88	0
2460.18	0
2460.48	0
2460.77	0
2461.07	0
2461.37	0
2461.66	0
2461.96	0
2462.26	0
2462.55	0
2462.85	0
2463.15	0
2463.44	0
2463.74	0
2464.04	0
2464.33	0
2464.63	0
2464.92	0
2465.22	0
2465.52	0
2465.81	0
2466.11	0
2466.41	0
2466.7	0
2467	0
2467.29	0
2467.59	0
2467.89	0
2468.18	0
2468.48	0
2468.77	0
2469.07	0
2469.37	0
2469.66	0
2469.96	0
2470.25	0
2470.55	0
2470.84	0
2471.14	0
2471.44	0
2471.73	0
2472.03	0
2472.32	0
2472.62	0
2472.91	0
2473.21	0
2473.51	0
2473.8	0
2474.1	0
2474.39	0
2474.69	0
2474.98	0
2475.28	0
2475.57	0
2475.87	0
2476.17	0
2476.46	0
2476.76	0
2477.05	0
2477.35	0
2477.64	0
2477.94	0
2478.23	0
2478.53	0
2478.82	0
2479.12	0
2479.41	0
2479.71	0
2480	0
2480.3	0
2480.59	0
2480.89	0
2481.18	0
2481.48	0
2481.77	0
2482.07	0
2482.36	0
2482.66	0
2482.95	0
2483.25	0
2483.54	0
2483.84	0
2484.13	0
2484.43	0
2484.72	0
2485.02	0
2485.31	0
2485.6	0
2485.9	0
2486.19	0
2486.49	0
2486.78	0
2487.08	0
2487.37	0
2487.67	0
2487.96	0
2488.26	0
2488.55	0
2488.84	0
2489.14	0
2489.43	0
2489.73	0
2490.02	0
2490.32	0
2490.61	0
2490.9	0
2491.2	0
2491.49	0
2491.79	0
2492.08	0
2492.37	0
2492.67	0
2492.96	0
2493.26	0
2493.55	0
2493.84	0
2494.14	0
2494.43	0
2494.73	0
2495.02	0
2495.31	0
2495.61	0
2495.9	0
2496.2	0
2496.49	0
2496.78	0
2497.08	0
2497.37	0
2497.66	0
2497.96	0
2498.25	0
2498.54	0
2498.84	0
2499.13	0
2499.43	0
2499.72	0
2500.01	0
2500.31	0
2500.6	0
2500.89	0
2501.19	0
2501.48	0
2501.77	0
2502.07	0
2502.36	0
2502.65	0
2502.95	0
2503.24	0
2503.53	0
2503.82	0
2504.12	0
2504.41	0
2504.7	0
2505	0
2505.29	0
2505.58	0
2505.88	0
2506.17	0
2506.46	0
2506.76	0
2507.05	0
2507.34	0
2507.63	0
2507.93	0
2508.22	0
2508.51	0
2508.8	0
2509.1	0
2509.39	0
2509.68	0
2509.98	0
2510.27	0
2510.56	0
2510.85	0
2511.15	0
2511.44	0
2511.73	0
2512.02	0
2512.32	0
2512.61	0
2512.9	0
2513.19	0
2513.49	0
2513.78	0
2514.07	0
2514.36	0
2514.65	0
2514.95	0
2515.24	0
2515.53	0
2515.82	0
2516.12	0
2516.41	0
2516.7	0
2516.99	0
2517.28	0
2517.58	0
2517.87	0
2518.16	0
2518.45	0
2518.74	0
2519.04	0
2519.33	0
2519.62	0
2519.91	0
2520.2	0
2520.5	0
2520.79	0
2521.08	0
2521.37	0
2521.66	0
2521.95	0
2522.25	0
2522.54	0
2522.83	0
2523.12	0
2523.41	0
2523.7	0
2523.99	0
2524.29	0
2524.58	0
2524.87	0
2525.16	0
2525.45	0
2525.74	0
2526.03	0
2526.33	0
2526.62	0
2526.91	0
2527.2	0
2527.49	0
2527.78	0
2528.07	0
2528.36	0
2528.66	0
2528.95	0
2529.24	0
2529.53	0
2529.82	0
2530.11	0
2530.4	0
2530.69	0
2530.98	0
2531.27	0
2531.57	0
2531.86	0
2532.15	0
2532.44	0
2532.73	0
2533.02	0
2533.31	0
2533.6	0
2533.89	0
2534.18	0
2534.47	0
2534.76	0
2535.05	0
2535.35	0
2535.64	0
2535.93	0
2536.22	0
2536.51	0
2536.8	0
2537.09	0
2537.38	0
2537.67	0
2537.96	0
2538.25	0
2538.54	0
2538.83	0
2539.12	0
2539.41	0
2539.7	0
2539.99	0
2540.28	0
2540.57	0
2540.86	0
2541.15	0
2541.44	0
2541.73	0
2542.02	0
2542.31	0
2542.6	0
2542.89	0
2543.18	0
2543.47	0
2543.76	0
2544.05	0
2544.34	0
2544.63	0
2544.92	0
2545.21	0
2545.5	0
2545.79	0
2546.08	0
2546.37	0
2546.66	0
2546.95	0
2547.24	0
2547.53	0
2547.82	0
2548.11	0
2548.4	0
2548.69	0
2548.98	0
2549.27	0
2549.55	0
2549.84	0
2550.13	0
2550.42	0
2550.71	0
2551	0
2551.29	0
2551.58	0
2551.87	0
2552.16	0
2552.45	0
2552.74	0
2553.03	0
2553.31	0
2553.6	0
2553.89	0
2554.18	0
2554.47	0
2554.76	0
2555.05	0
2555.34	0
2555.63	0
2555.92	0
2556.2	0
2556.49	0
2556.78	0
2557.07	0
2557.36	0
2557.65	0
2557.94	0
2558.23	0
2558.51	0
2558.8	0
2559.09	0
2559.38	0
2559.67	0
2559.96	0
2560.25	0
2560.53	0
2560.82	0
2561.11	0
2561.4	0
2561.69	0
2561.98	0
2562.27	0
2562.55	0
2562.84	0
2563.13	0
2563.42	0
2563.71	0
2564	0
2564.28	0
2564.57	0
2564.86	0
2565.15	0
2565.44	0
2565.72	0
2566.01	0
2566.3	0
2566.59	0
2566.88	0
2567.16	0
2567.45	0
2567.74	0
2568.03	0
2568.32	0
2568.6	0
2568.89	0
2569.18	0
2569.47	0
2569.75	0

