Source: Spectrum Viewer

Chart: Pulse Spectrum

Series: 
Wavelength (nm)	S (a.u.)
1179.9	0
1180.29	0
1180.68	0
1181.06	0
1181.45	0
1181.83	0
1182.22	0
1182.6	0
1182.99	0
1183.38	0
1183.76	0
1184.15	0
1184.53	0
1184.92	0
1185.3	0
1185.69	0
1186.07	0
1186.46	0
1186.85	0
1187.23	0
1187.62	0
1188	0
1188.39	0
1188.77	0
1189.16	0
1189.54	0
1189.93	0
1190.31	0
1190.7	0
1191.08	0
1191.47	0
1191.85	0
1192.24	0
1192.62	0
1193.01	0
1193.39	0
1193.78	0
1194.16	0
1194.55	0
1194.93	0
1195.32	0
1195.7	0
1196.09	0
1196.47	0
1196.86	0
1197.24	0
1197.63	0
1198.01	0
1198.4	0
1198.78	0
1199.16	0
1199.55	0
1199.93	0
1200.32	0
1200.7	0
1201.09	0
1201.47	0
1201.86	0
1202.24	0
1202.63	0
1203.01	0
1203.39	0
1203.78	0
1204.16	0
1204.55	0
1204.93	0
1205.32	0
1205.7	0
1206.08	0
1206.47	0
1206.85	0
1207.24	0
1207.62	0
1208	0
1208.39	0
1208.77	0
1209.16	0
1209.54	0
1209.92	0
1210.31	0
1210.69	0
1211.08	0
1211.46	0
1211.84	0
1212.23	0
1212.61	0
1213	0
1213.38	0
1213.76	0
1214.15	0
1214.53	0
1214.91	0
1215.3	0
1215.68	0
1216.06	0
1216.45	0
1216.83	0
1217.22	0
1217.6	0
1217.98	0
1218.37	0
1218.75	0
1219.13	0
1219.52	0
1219.9	0
1220.28	0
1220.67	0
1221.05	0
1221.43	0
1221.82	0
1222.2	0
1222.58	0
1222.97	0
1223.35	0
1223.73	0
1224.11	0
1224.5	0
1224.88	0
1225.26	0
1225.65	0
1226.03	0
1226.41	0
1226.8	0
1227.18	0
1227.56	0
1227.94	0
1228.33	0
1228.71	0
1229.09	0
1229.47	0
1229.86	0
1230.24	0
1230.62	0
1231.01	0
1231.39	0
1231.77	0
1232.15	0
1232.54	0
1232.92	0
1233.3	0
1233.68	0
1234.07	0
1234.45	0
1234.83	0
1235.21	0
1235.6	0
1235.98	0
1236.36	0
1236.74	0
1237.12	0
1237.51	0
1237.89	0
1238.27	0
1238.65	0
1239.04	0
1239.42	0
1239.8	0
1240.18	0
1240.56	0
1240.95	0
1241.33	0
1241.71	0
1242.09	0
1242.47	0
1242.86	0
1243.24	0
1243.62	0
1244	0
1244.38	0
1244.77	0
1245.15	0
1245.53	0
1245.91	0
1246.29	0
1246.67	0
1247.06	0
1247.44	0
1247.82	0
1248.2	0
1248.58	0
1248.96	0
1249.34	0
1249.73	0
1250.11	0
1250.49	0
1250.87	0
1251.25	0
1251.63	0
1252.01	0
1252.4	0
1252.78	0
1253.16	0
1253.54	0
1253.92	0
1254.3	0
1254.68	0
1255.06	0
1255.45	0
1255.83	0
1256.21	0
1256.59	0
1256.97	0
1257.35	0
1257.73	0
1258.11	0
1258.49	0
1258.87	0
1259.26	0
1259.64	0
1260.02	0
1260.4	0
1260.78	0
1261.16	0
1261.54	0
1261.92	0
1262.3	0
1262.68	0
1263.06	0
1263.44	0
1263.82	0
1264.21	0
1264.59	0
1264.97	0
1265.35	0
1265.73	0
1266.11	0
1266.49	0
1266.87	0
1267.25	0
1267.63	0
1268.01	0
1268.39	0
1268.77	0
1269.15	0
1269.53	0
1269.91	0
1270.29	0
1270.67	0
1271.05	0
1271.43	0
1271.81	0
1272.19	0
1272.57	0
1272.95	0
1273.33	0
1273.71	0
1274.09	0
1274.47	0
1274.85	0
1275.23	0
1275.61	0
1275.99	0
1276.37	0
1276.75	0
1277.13	0
1277.51	0
1277.89	0
1278.27	0
1278.65	0
1279.03	0
1279.41	0
1279.79	0
1280.17	0
1280.55	0
1280.93	0
1281.31	0
1281.69	0
1282.07	0
1282.45	0
1282.82	0
1283.2	0
1283.58	0
1283.96	0
1284.34	0
1284.72	0
1285.1	0
1285.48	0
1285.86	0
1286.24	0
1286.62	0
1287	0
1287.38	0
1287.75	0
1288.13	0
1288.51	0
1288.89	0
1289.27	0
1289.65	0
1290.03	0
1290.41	0
1290.79	0
1291.17	0
1291.54	0
1291.92	0
1292.3	0
1292.68	0
1293.06	0
1293.44	0
1293.82	0
1294.2	0
1294.57	0
1294.95	0
1295.33	0
1295.71	0
1296.09	0
1296.47	0
1296.85	0
1297.22	0
1297.6	0
1297.98	0
1298.36	0
1298.74	0
1299.12	0
1299.5	0
1299.87	0
1300.25	0
1300.63	0
1301.01	0
1301.39	0
1301.77	0
1302.14	0
1302.52	0
1302.9	0
1303.28	0
1303.66	0
1304.03	0
1304.41	0
1304.79	0
1305.17	0
1305.55	0
1305.92	0
1306.3	0
1306.68	0
1307.06	0
1307.44	0
1307.81	0
1308.19	0
1308.57	0
1308.95	0
1309.32	0
1309.7	0
1310.08	0
1310.46	0
1310.84	0
1311.21	0
1311.59	0
1311.97	0
1312.35	0
1312.72	0
1313.1	0
1313.48	0
1313.86	0
1314.23	0
1314.61	0
1314.99	0
1315.37	0
1315.74	0
1316.12	0
1316.5	0
1316.87	0
1317.25	0
1317.63	0
1318.01	0
1318.38	0
1318.76	0
1319.14	0
1319.52	0
1319.89	0
1320.27	0
1320.65	0
1321.02	0
1321.4	0
1321.78	0
1322.15	0
1322.53	0
1322.91	0
1323.29	0
1323.66	0
1324.04	0
1324.42	0
1324.79	0
1325.17	0
1325.55	0
1325.92	0
1326.3	0
1326.68	0
1327.05	0
1327.43	0
1327.81	0
1328.18	0
1328.56	0
1328.94	0
1329.31	0
1329.69	0
1330.06	0
1330.44	0
1330.82	0
1331.19	0
1331.57	0
1331.95	0
1332.32	0
1332.7	0
1333.08	0
1333.45	0
1333.83	0
1334.2	0
1334.58	0
1334.96	0
1335.33	0
1335.71	0
1336.08	0
1336.46	0
1336.84	0
1337.21	0
1337.59	0
1337.96	0
1338.34	0
1338.72	0
1339.09	0
1339.47	0
1339.84	0
1340.22	0
1340.6	0
1340.97	0
1341.35	0
1341.72	0
1342.1	0
1342.47	0
1342.85	0
1343.23	0
1343.6	0
1343.98	0
1344.35	0
1344.73	0
1345.1	0
1345.48	0
1345.85	0
1346.23	0
1346.61	0
1346.98	0
1347.36	0
1347.73	0
1348.11	0
1348.48	0
1348.86	0
1349.23	0
1349.61	0
1349.98	0
1350.36	0
1350.73	0
1351.11	0
1351.48	0
1351.86	0
1352.23	0
1352.61	0
1352.98	0
1353.36	0
1353.73	0
1354.11	0
1354.48	0
1354.86	0
1355.23	0
1355.61	0
1355.98	0
1356.36	0
1356.73	0
1357.11	0
1357.48	0
1357.86	0
1358.23	0
1358.61	0
1358.98	0
1359.35	0
1359.73	0
1360.1	0
1360.48	0
1360.85	0
1361.23	0
1361.6	0
1361.98	0
1362.35	0
1362.72	0
1363.1	0
1363.47	0
1363.85	0
1364.22	0
1364.6	0
1364.97	0
1365.34	0
1365.72	0
1366.09	0
1366.47	0
1366.84	0
1367.22	0
1367.59	0
1367.96	0
1368.34	0
1368.71	0
1369.09	0
1369.46	-0.92
1369.83	-0.92
1370.21	-0.92
1370.58	-0.92
1370.96	-0.72
1371.33	0.2
1371.7	0.48
1372.08	0.68
1372.45	1.12
1372.82	0.92
1373.2	1.2
1373.57	0.96
1373.95	0.92
1374.32	0.48
1374.69	0.48
1375.07	0.24
1375.44	0.72
1375.81	0.64
1376.19	0.64
1376.56	0.64
1376.93	0.6
1377.31	0.08
1377.68	0
1378.05	0.16
1378.43	0.16
1378.8	0.16
1379.17	0.16
1379.55	0.16
1379.92	0.08
1380.29	0.2
1380.67	0.2
1381.04	0.36
1381.41	0.52
1381.79	0.44
1382.16	0.44
1382.53	0.52
1382.91	-0.56
1383.28	-0.56
1383.65	-0.32
1384.03	1.13245e-16
1384.4	-0.04
1384.77	0.92
1385.14	0.88
1385.52	0.72
1385.89	0.28
1386.26	0.24
1386.64	0.2
1387.01	0.12
1387.38	0.04
1387.75	0.16
1388.13	0.28
1388.5	0.32
1388.87	0.32
1389.25	0.32
1389.62	0.08
1389.99	-0.24
1390.36	-0.24
1390.74	-0.28
1391.11	-0.24
1391.48	-0.12
1391.85	0.28
1392.23	0.32
1392.6	0.32
1392.97	0.4
1393.34	0.4
1393.72	0.2
1394.09	1.04
1394.46	1.32
1394.83	1.4
1395.21	1.4
1395.58	1.6
1395.95	0.68
1396.32	0.52
1396.69	0.32
1397.07	0.32
1397.44	0.12
1397.81	0.12
1398.18	0.16
1398.55	0.16
1398.93	0.24
1399.3	0.4
1399.67	0.68
1400.04	0.64
1400.41	1
1400.79	1
1401.16	0.84
1401.53	0.56
1401.9	0.44
1402.27	0.4
1402.65	0.32
1403.02	0.32
1403.39	0.4
1403.76	5.55112e-17
1404.13	-0.32
1404.51	-0.16
1404.88	0.12
1405.25	0.04
1405.62	0.44
1405.99	0.44
1406.36	0.28
1406.74	0.08
1407.11	0.08
1407.48	0.08
1407.85	-1.08
1408.22	-1
1408.59	-0.96
1408.96	-0.96
1409.34	-0.92
1409.71	0.48
1410.08	0.52
1410.45	0.44
1410.82	0.44
1411.19	0.44
1411.56	0.2
1411.93	0.08
1412.31	0.04
1412.68	0.12
1413.05	0.08
1413.42	0.16
1413.79	0.28
1414.16	0.08
1414.53	0
1414.9	-0.16
1415.27	-0.16
1415.65	-0.16
1416.02	0.16
1416.39	0.2
1416.76	0.52
1417.13	0.56
1417.5	0.44
1417.87	0.32
1418.24	0.44
1418.61	0.4
1418.98	0.48
1419.35	0.56
1419.73	0.56
1420.1	0.56
1420.47	0.44
1420.84	0.4
1421.21	0.32
1421.58	0.32
1421.95	0.32
1422.32	0.32
1422.69	0.2
1423.06	0.2
1423.43	0.2
1423.8	0.08
1424.17	0.32
1424.54	0.68
1424.91	0.68
1425.28	0.84
1425.65	0.8
1426.02	0.64
1426.39	0.44
1426.76	0.24
1427.14	0.16
1427.51	0.2
1427.88	0.28
1428.25	0.08
1428.62	0.44
1428.99	0.48
1429.36	0.52
1429.73	0.48
1430.1	0.48
1430.47	0.52
1430.84	0.6
1431.21	0.8
1431.58	0.68
1431.95	0.72
1432.32	0.64
1432.69	0.48
1433.06	0.2
1433.43	0.24
1433.8	0.2
1434.17	0.08
1434.54	0.04
1434.91	0.08
1435.28	0.04
1435.64	0.48
1436.01	-0.08
1436.38	-0.04
1436.75	0.24
1437.12	0.32
1437.49	1.45439e-16
1437.86	0.56
1438.23	0.76
1438.6	0.52
1438.97	0.44
1439.34	0.52
1439.71	0.52
1440.08	0.4
1440.45	0.4
1440.82	-0.2
1441.19	-0.4
1441.56	-0.4
1441.93	-0.48
1442.3	-0.36
1442.67	-1.36
1443.03	-1.36
1443.4	-1.16
1443.77	-1.12
1444.14	-1.28
1444.51	0.48
1444.88	0.48
1445.25	0.4
1445.62	0.52
1445.99	0.56
1446.36	0.6
1446.73	0.6
1447.09	0.76
1447.46	0.56
1447.83	0.64
1448.2	0.44
1448.57	0.24
1448.94	-0.04
1449.31	2.4425e-17
1449.68	-0.16
1450.05	-0.16
1450.41	0.32
1450.78	-0.08
1451.15	-0.08
1451.52	-0.08
1451.89	-3.44166e-17
1452.26	-0.24
1452.63	0.16
1453	0.12
1453.36	0.12
1453.73	0.04
1454.1	0.08
1454.47	0.12
1454.84	0.12
1455.21	0.12
1455.57	-0.28
1455.94	-0.36
1456.31	-0.32
1456.68	-0.2
1457.05	-0.2
1457.42	0.2
1457.78	0.36
1458.15	0.28
1458.52	0.2
1458.89	0.24
1459.26	0.24
1459.63	0.08
1459.99	0.12
1460.36	0.24
1460.73	0.2
1461.1	0.2
1461.47	0.2
1461.83	0.4
1462.2	0.52
1462.57	0.68
1462.94	0.76
1463.31	0.84
1463.67	0.8
1464.04	0.56
1464.41	0.4
1464.78	-0.12
1465.15	-0.16
1465.51	-0.36
1465.88	-0.16
1466.25	-0.16
1466.62	0.28
1466.98	0.24
1467.35	0.28
1467.72	0.64
1468.09	0.64
1468.46	0.64
1468.82	0.92
1469.19	0.96
1469.56	0.6
1469.93	0.72
1470.29	0.72
1470.66	0.44
1471.03	0.36
1471.4	0.2
1471.76	0.08
1472.13	0.16
1472.5	0.48
1472.86	0.72
1473.23	0.68
1473.6	0.68
1473.97	0.92
1474.33	0.76
1474.7	0.52
1475.07	0.72
1475.44	0.84
1475.8	0.4
1476.17	0.32
1476.54	0.44
1476.9	0.28
1477.27	0.2
1477.64	0.32
1478	0.32
1478.37	0.2
1478.74	0.32
1479.11	0.36
1479.47	0.36
1479.84	0.56
1480.21	0.6
1480.57	0.44
1480.94	0.52
1481.31	0.6
1481.67	0.52
1482.04	0.76
1482.41	0.72
1482.77	0.56
1483.14	0.48
1483.51	0.44
1483.87	0.16
1484.24	0.24
1484.61	0.4
1484.97	0.48
1485.34	0.32
1485.71	-0.68
1486.07	-0.72
1486.44	-0.76
1486.81	-0.84
1487.17	-0.84
1487.54	0.2
1487.9	0.16
1488.27	0.12
1488.64	0.04
1489	0.16
1489.37	0.12
1489.74	0.36
1490.1	0.28
1490.47	0.36
1490.83	0.36
1491.2	0.36
1491.57	0.12
1491.93	0.12
1492.3	0.12
1492.66	0
1493.03	0.08
1493.4	0.08
1493.76	0.12
1494.13	0.16
1494.49	0.16
1494.86	0.2
1495.23	0.2
1495.59	0.16
1495.96	-1.28
1496.32	-1.28
1496.69	-1.4
1497.06	-1.36
1497.42	-2
1497.79	-0.2
1498.15	0.32
1498.52	0.56
1498.88	0.52
1499.25	1.4
1499.62	0.88
1499.98	0.6
1500.35	0.48
1500.71	0.52
1501.08	0.28
1501.44	0.72
1501.81	0.48
1502.17	0.52
1502.54	0.56
1502.9	0.56
1503.27	0.24
1503.64	0.24
1504	0.16
1504.37	0.16
1504.73	0.4
1505.1	0.4
1505.46	0.4
1505.83	0.52
1506.19	0.64
1506.56	0.44
1506.92	0.44
1507.29	0.48
1507.65	0.4
1508.02	0.2
1508.38	0.16
1508.75	0.24
1509.11	0.24
1509.48	0.16
1509.84	0.6
1510.21	0.68
1510.57	1.08
1510.94	1.24
1511.3	1.24
1511.67	0.8
1512.03	1
1512.4	0.52
1512.76	0.32
1513.13	-0.72
1513.49	-0.68
1513.85	-0.92
1514.22	-0.76
1514.58	-0.76
1514.95	0.24
1515.31	0.2
1515.68	0.28
1516.04	0.2
1516.41	0.2
1516.77	0.2
1517.14	0.32
1517.5	0.2
1517.86	0.16
1518.23	0.16
1518.59	0.4
1518.96	0.28
1519.32	0.56
1519.69	0.6
1520.05	0.64
1520.41	0.44
1520.78	0.6
1521.14	0.4
1521.51	0.44
1521.87	0.4
1522.24	0.4
1522.6	0.32
1522.96	0.32
1523.33	0.6
1523.69	0.6
1524.06	0.64
1524.42	1.24
1524.78	1.36
1525.15	1.08
1525.51	1.16
1525.88	1.28
1526.24	0.6
1526.6	0.4
1526.97	0.28
1527.33	0.2
1527.69	0
1528.06	0
1528.42	0.08
1528.79	0.16
1529.15	-0.64
1529.51	-0.52
1529.88	-0.4
1530.24	-0.48
1530.6	-0.56
1530.97	0.24
1531.33	0.12
1531.69	0.12
1532.06	0.12
1532.42	0.4
1532.78	0.48
1533.15	0.48
1533.51	0.44
1533.87	0.6
1534.24	0.32
1534.6	0.24
1534.96	0.36
1535.33	0.48
1535.69	0.36
1536.05	0.52
1536.42	0.52
1536.78	0.52
1537.14	0.4
1537.51	0.48
1537.87	0.36
1538.23	0.44
1538.6	0.32
1538.96	0.32
1539.32	0.44
1539.68	0.72
1540.05	0.72
1540.41	0.76
1540.77	0.92
1541.14	1.16
1541.5	1.16
1541.86	1.32
1542.23	1.28
1542.59	1.04
1542.95	0.64
1543.31	0.32
1543.68	0.08
1544.04	0.08
1544.4	0.72
1544.76	0.64
1545.13	0.64
1545.49	0.72
1545.85	1.12
1546.21	0.52
1546.58	0.72
1546.94	0.72
1547.3	0.64
1547.66	0.48
1548.03	0.44
1548.39	0.24
1548.75	0.24
1549.11	0.4
1549.48	0.2
1549.84	0.2
1550.2	0.24
1550.56	0.28
1550.93	0.12
1551.29	0.08
1551.65	0.08
1552.01	0.2
1552.37	0.16
1552.74	0.16
1553.1	0.48
1553.46	0.52
1553.82	0.56
1554.18	0.72
1554.55	0.72
1554.91	0.72
1555.27	0.72
1555.63	0.56
1555.99	0.52
1556.36	0.64
1556.72	-1.28
1557.08	-1.32
1557.44	-1.36
1557.8	-1.48
1558.17	-1.28
1558.53	0.32
1558.89	0.68
1559.25	0.76
1559.61	0.76
1559.97	0.52
1560.34	0.88
1560.7	0.6
1561.06	0.52
1561.42	0.52
1561.78	0.64
1562.14	0.2
1562.5	0.12
1562.87	0.12
1563.23	0.32
1563.59	-0.28
1563.95	-0.2
1564.31	-0.2
1564.67	-0.12
1565.03	-0.32
1565.4	0.08
1565.76	0.08
1566.12	0.08
1566.48	0
1566.84	0.4
1567.2	0.68
1567.56	0.6
1567.92	0.6
1568.29	0.68
1568.65	0.52
1569.01	0.28
1569.37	0.28
1569.73	0.28
1570.09	0.24
1570.45	0.08
1570.81	0.2
1571.17	0.4
1571.53	0.48
1571.89	0.76
1572.26	0.72
1572.62	0.84
1572.98	0.96
1573.34	1.04
1573.7	0.72
1574.06	0.68
1574.42	0.44
1574.78	2.77556e-17
1575.14	0.16
1575.5	0.16
1575.86	-0.48
1576.22	-0.52
1576.58	-0.2
1576.94	-0.52
1577.3	-0.36
1577.67	0.44
1578.03	0.68
1578.39	0.88
1578.75	0.92
1579.11	0.76
1579.47	0.96
1579.83	0.72
1580.19	0.44
1580.55	0.8
1580.91	0.84
1581.27	0.48
1581.63	0.48
1581.99	0.44
1582.35	0.04
1582.71	0.2
1583.07	0.2
1583.43	0.44
1583.79	0.44
1584.15	0.72
1584.51	0.64
1584.87	0.76
1585.23	0.56
1585.59	0.84
1585.95	0.84
1586.31	0.72
1586.67	0.6
1587.03	0.68
1587.39	0.48
1587.75	0.2
1588.11	0.2
1588.47	0.28
1588.83	0.16
1589.19	0.16
1589.55	0.16
1589.91	0.16
1590.27	0.08
1590.63	0.08
1590.99	0.04
1591.35	0.04
1591.71	0.04
1592.07	0.16
1592.42	0.16
1592.78	0.12
1593.14	0.12
1593.5	0.16
1593.86	0.04
1594.22	0.2
1594.58	0.28
1594.94	0.32
1595.3	0.28
1595.66	0.6
1596.02	0.52
1596.38	0.44
1596.74	0.68
1597.1	0.8
1597.46	0.48
1597.81	0.4
1598.17	0.52
1598.53	0.24
1598.89	0.12
1599.25	0.2
1599.61	0.2
1599.97	0.12
1600.33	0.24
1600.69	0.24
1601.05	0.16
1601.4	0.44
1601.76	0.08
1602.12	0.04
1602.48	0.04
1602.84	0.12
1603.2	-0.12
1603.56	0.56
1603.92	0.52
1604.28	0.56
1604.63	0.48
1604.99	0.44
1605.35	0.08
1605.71	0.28
1606.07	0.36
1606.43	0.76
1606.79	0.88
1607.14	1
1607.5	1.04
1607.86	1.68
1608.22	1.28
1608.58	1.16
1608.94	1.04
1609.29	0.76
1609.65	0.04
1610.01	0.16
1610.37	0.16
1610.73	0.36
1611.09	0.36
1611.44	0.4
1611.8	0.28
1612.16	0.28
1612.52	0.08
1612.88	0.24
1613.24	0.4
1613.59	0.72
1613.95	0.8
1614.31	0.8
1614.67	0.64
1615.03	0.6
1615.38	0.28
1615.74	0.28
1616.1	0.28
1616.46	0.36
1616.82	0.24
1617.17	0.24
1617.53	0.36
1617.89	0.36
1618.25	0.28
1618.6	0.48
1618.96	0.48
1619.32	0.32
1619.68	0.56
1620.04	0.76
1620.39	0.48
1620.75	0.48
1621.11	0.44
1621.47	0.48
1621.82	0.48
1622.18	0.48
1622.54	0.56
1622.9	0.76
1623.25	-0.36
1623.61	-0.56
1623.97	-0.48
1624.33	-0.44
1624.68	-0.84
1625.04	0.08
1625.4	0.08
1625.75	-0.6
1626.11	-0.56
1626.47	-0.36
1626.83	-0.44
1627.18	-0.44
1627.54	0.24
1627.9	0.08
1628.26	0.24
1628.61	0.24
1628.97	0.4
1629.33	0.48
1629.68	0.48
1630.04	0.32
1630.4	-0.28
1630.75	-0.44
1631.11	-0.56
1631.47	-0.76
1631.83	-0.48
1632.18	0.2
1632.54	0.24
1632.9	0.44
1633.25	0.68
1633.61	0.4
1633.97	0.36
1634.32	0.48
1634.68	0.24
1635.04	0.28
1635.39	0.28
1635.75	0.24
1636.11	0.2
1636.46	0.24
1636.82	0.64
1637.18	0.76
1637.53	0.96
1637.89	0.96
1638.25	1.44
1638.6	1.16
1638.96	1.04
1639.31	0.96
1639.67	1
1640.03	0.48
1640.38	0.44
1640.74	0.48
1641.1	0.4
1641.45	0.44
1641.81	0.44
1642.16	0.32
1642.52	0.32
1642.88	0.44
1643.23	-0.12
1643.59	-0.12
1643.95	-0.16
1644.3	-0.12
1644.66	-0.28
1645.01	0.24
1645.37	0.36
1645.73	0.48
1646.08	0.6
1646.44	0.6
1646.79	0.12
1647.15	0.08
1647.51	-1.02694e-17
1647.86	-0.2
1648.22	0.12
1648.57	-0.24
1648.93	-0.32
1649.28	-0.32
1649.64	-0.32
1650	-0.56
1650.35	0.12
1650.71	0.12
1651.06	0.08
1651.42	0.28
1651.77	0
1652.13	0.16
1652.48	0.2
1652.84	0.28
1653.2	0.52
1653.55	0.72
1653.91	0.6
1654.26	0.56
1654.62	0.64
1654.97	0.6
1655.33	1.2
1655.68	1.36
1656.04	1.36
1656.39	1.28
1656.75	0.96
1657.1	0.56
1657.46	0.36
1657.81	0.36
1658.17	0.28
1658.52	0.2
1658.88	0.12
1659.23	0.12
1659.59	0.12
1659.94	0.24
1660.3	0.28
1660.65	0.6
1661.01	0.68
1661.36	0.76
1661.72	0.72
1662.07	0.84
1662.43	0.4
1662.78	0.6
1663.14	0.52
1663.49	0.64
1663.85	0.72
1664.2	0.72
1664.56	0.44
1664.91	-1.16
1665.27	-0.96
1665.62	-1.16
1665.98	-1.16
1666.33	-1.04
1666.69	0.6
1667.04	0.24
1667.39	0.2
1667.75	0.36
1668.1	0.24
1668.46	0.36
1668.81	0.44
1669.17	0.68
1669.52	0.76
1669.88	0.88
1670.23	0.72
1670.58	0.6
1670.94	0.36
1671.29	0.28
1671.65	0.52
1672	0.56
1672.36	0.76
1672.71	0.96
1673.06	0.8
1673.42	0.24
1673.77	0.2
1674.13	0.32
1674.48	0.12
1674.83	0.12
1675.19	0.44
1675.54	0.6
1675.9	0.4
1676.25	0.8
1676.6	0.88
1676.96	0.76
1677.31	0.84
1677.67	1.28
1678.02	1
1678.37	1.04
1678.73	1.28
1679.08	1.2
1679.43	1.32
1679.79	1.32
1680.14	1.28
1680.5	0.6
1680.85	0.44
1681.2	-0.24
1681.56	-0.12
1681.91	0.16
1682.26	1.44
1682.62	2.12
1682.97	2.56
1683.32	3.08
1683.68	3.4
1684.03	3.16
1684.38	3.04
1684.74	3.36
1685.09	3
1685.44	2.76
1685.8	2.88
1686.15	3.68
1686.5	4.12
1686.86	4.2
1687.21	4.76
1687.56	4.6
1687.92	4.4
1688.27	4.8
1688.62	5.92
1688.98	5.6
1689.33	6.36
1689.68	6.64
1690.03	5.96
1690.39	5.56
1690.74	5.84
1691.09	6.36
1691.45	6.68
1691.8	7.6
1692.15	8.08
1692.5	8.72
1692.86	8.72
1693.21	8.76
1693.56	8.8
1693.92	8.4
1694.27	8
1694.62	7.64
1694.97	7.24
1695.33	7.56
1695.68	7.56
1696.03	8.04
1696.38	8.64
1696.74	8.56
1697.09	7.72
1697.44	7.92
1697.79	9.08
1698.15	9.44
1698.5	9.56
1698.85	10.08
1699.2	10.72
1699.56	10.84
1699.91	10.32
1700.26	11.8
1700.61	11.2
1700.97	11.92
1701.32	11.72
1701.67	12.84
1702.02	11.68
1702.37	12.92
1702.73	12.76
1703.08	12.44
1703.43	11.64
1703.78	12.84
1704.13	12.76
1704.49	12.44
1704.84	12.52
1705.19	12.84
1705.54	12.96
1705.89	13.8
1706.25	12.96
1706.6	12.52
1706.95	13.2
1707.3	12.44
1707.65	10.64
1708.01	10.84
1708.36	10.84
1708.71	10.12
1709.06	10.44
1709.41	11.56
1709.76	13.24
1710.12	14.56
1710.47	13.68
1710.82	13.4
1711.17	13.08
1711.52	11.32
1711.87	11
1712.23	11.68
1712.58	10.8
1712.93	10.36
1713.28	11.48
1713.63	10.36
1713.98	9.68
1714.33	10.76
1714.69	12.12
1715.04	11.44
1715.39	11.36
1715.74	12.04
1716.09	12.64
1716.44	11.2
1716.79	11.8
1717.14	12.48
1717.5	13.12
1717.85	12.36
1718.2	13.6
1718.55	13.56
1718.9	13.32
1719.25	12.24
1719.6	11.68
1719.95	11
1720.3	9.6
1720.65	9.6
1721.01	11.36
1721.36	13.4
1721.71	13.68
1722.06	13.76
1722.41	14.36
1722.76	13.64
1723.11	13.04
1723.46	14.28
1723.81	16.24
1724.16	17.4
1724.51	17.2
1724.86	17.76
1725.21	18.16
1725.56	19.84
1725.92	20.8
1726.27	21.96
1726.62	22.72
1726.97	22.44
1727.32	21.76
1727.67	21.72
1728.02	22.88
1728.37	24.08
1728.72	26.44
1729.07	27.84
1729.42	30
1729.77	31.24
1730.12	32.36
1730.47	32.44
1730.82	34.84
1731.17	36
1731.52	38.52
1731.87	39.4
1732.22	41.04
1732.57	42.52
1732.92	44.12
1733.27	45
1733.62	47.8
1733.97	51.04
1734.32	51.16
1734.67	52.44
1735.02	54.36
1735.37	55.92
1735.72	56.88
1736.07	60.4
1736.42	62.76
1736.77	65.92
1737.12	68.84
1737.47	71.48
1737.82	73.88
1738.17	76.48
1738.52	78
1738.87	77.8
1739.22	78.76
1739.57	79.92
1739.92	81.32
1740.27	82.88
1740.62	84.76
1740.97	87.6
1741.32	90
1741.67	90.92
1742.02	92.76
1742.37	96.44
1742.72	98.96
1743.06	101.2
1743.41	103.36
1743.76	104.52
1744.11	105.16
1744.46	107.48
1744.81	108.48
1745.16	111.52
1745.51	113.88
1745.86	115.84
1746.21	117.4
1746.56	119.52
1746.91	120.2
1747.26	122.32
1747.6	124.24
1747.95	125.44
1748.3	125.28
1748.65	127.44
1749	128.12
1749.35	129.16
1749.7	130.52
1750.05	132.56
1750.4	131.8
1750.75	133.16
1751.09	133.4
1751.44	131.96
1751.79	131.2
1752.14	130.92
1752.49	131.72
1752.84	132.08
1753.19	131.32
1753.54	133.84
1753.88	135.28
1754.23	132.64
1754.58	133.64
1754.93	133.48
1755.28	132.12
1755.63	134.28
1755.98	135.12
1756.32	134.96
1756.67	137.28
1757.02	134.08
1757.37	132.28
1757.72	130.2
1758.07	127.4
1758.42	127.4
1758.76	127.64
1759.11	124.2
1759.46	126.24
1759.81	124.24
1760.16	120.88
1760.5	121.28
1760.85	120.12
1761.2	120.16
1761.55	119.84
1761.9	117.32
1762.25	117.64
1762.59	116.04
1762.94	111.68
1763.29	112.36
1763.64	111.68
1763.99	109.24
1764.33	108.12
1764.68	104.04
1765.03	102.12
1765.38	100.28
1765.73	97.84
1766.07	96.92
1766.42	96.84
1766.77	94.48
1767.12	94.2
1767.46	91.68
1767.81	90.76
1768.16	90.16
1768.51	89.04
1768.85	87.72
1769.2	87.48
1769.55	87.48
1769.9	84.92
1770.25	83.64
1770.59	82.44
1770.94	79.68
1771.29	75.92
1771.64	75.84
1771.98	73.44
1772.33	69.4
1772.68	68.16
1773.02	66.6
1773.37	65.92
1773.72	64.36
1774.07	64.76
1774.41	65.24
1774.76	62.76
1775.11	62.48
1775.46	61.12
1775.8	58.24
1776.15	55.44
1776.5	56.12
1776.84	53.12
1777.19	54.16
1777.54	54.24
1777.89	55.2
1778.23	56.64
1778.58	56.52
1778.93	55.28
1779.27	54.96
1779.62	53.08
1779.97	51.56
1780.31	51.72
1780.66	52.12
1781.01	54.6
1781.35	55.88
1781.7	55.44
1782.05	56.84
1782.39	59.08
1782.74	59.32
1783.09	60
1783.43	61.36
1783.78	61.72
1784.13	59.16
1784.47	57.6
1784.82	58.48
1785.17	63.6
1785.51	69.12
1785.86	77.84
1786.21	85
1786.55	89.72
1786.9	89.2
1787.25	88.48
1787.59	84.72
1787.94	84.16
1788.29	84.56
1788.63	86.64
1788.98	87.88
1789.32	87.76
1789.67	88.96
1790.02	101.24
1790.36	119.92
1790.71	135.36
1791.06	150.68
1791.4	163.68
1791.75	170.08
1792.09	169.84
1792.44	170.76
1792.79	167.4
1793.13	171.8
1793.48	165.8
1793.82	158.32
1794.17	153.28
1794.52	154.4
1794.86	147.32
1795.21	145.04
1795.55	136.2
1795.9	151.28
1796.24	203.04
1796.59	232.36
1796.94	257.08
1797.28	282.72
1797.63	277.2
1797.97	245.6
1798.32	235.48
1798.66	243.2
1799.01	255.92
1799.36	260.76
1799.7	271.28
1800.05	285.72
1800.39	271.16
1800.74	291.16
1801.08	346.64
1801.43	359.44
1801.77	359.84
1802.12	376.8
1802.46	373.72
1802.81	343.56
1803.15	329.88
1803.5	325.36
1803.85	315
1804.19	297.52
1804.54	312.6
1804.88	330.92
1805.23	338.2
1805.57	378.96
1805.92	432.76
1806.26	440.08
1806.61	440.72
1806.95	472.72
1807.3	513.08
1807.64	524.4
1807.99	528.2
1808.33	534.92
1808.68	512.88
1809.02	497.12
1809.37	531.32
1809.71	561.8
1810.06	583.6
1810.4	598.96
1810.75	572.16
1811.09	558.44
1811.43	619.52
1811.78	679.8
1812.12	751.6
1812.47	801
1812.81	787.32
1813.16	739.72
1813.5	704.64
1813.85	661.92
1814.19	648.72
1814.54	633.8
1814.88	595.8
1815.23	565.64
1815.57	527.08
1815.91	473.8
1816.26	484.52
1816.6	569.12
1816.95	623.64
1817.29	691.6
1817.64	790.84
1817.98	854.64
1818.32	875.88
1818.67	903.52
1819.01	918.48
1819.36	910.76
1819.7	866.08
1820.05	814.52
1820.39	816.04
1820.73	805.6
1821.08	785.24
1821.42	793.44
1821.77	770.16
1822.11	695.36
1822.45	686.56
1822.8	692.6
1823.14	647.12
1823.49	697.32
1823.83	831.16
1824.17	898.6
1824.52	949.32
1824.86	1021.4
1825.2	998.56
1825.55	906.92
1825.89	823.76
1826.24	780.6
1826.58	833.44
1826.92	882.52
1827.27	909.96
1827.61	973.72
1827.95	989
1828.3	905.56
1828.64	842.76
1828.98	787.24
1829.33	724.76
1829.67	792
1830.02	869.48
1830.36	916.6
1830.7	1031.36
1831.05	1119.12
1831.39	1067.88
1831.73	1039.84
1832.08	1034.88
1832.42	960.96
1832.76	916.28
1833.1	905.56
1833.45	855.64
1833.79	820.4
1834.13	827.6
1834.48	822
1834.82	824.28
1835.16	849.16
1835.51	847.6
1835.85	829.8
1836.19	813.44
1836.54	754.32
1836.88	702.2
1837.22	654.8
1837.56	613.8
1837.91	621.96
1838.25	705.56
1838.59	776.08
1838.94	830.16
1839.28	863.56
1839.62	843.32
1839.96	791.6
1840.31	733.28
1840.65	672.88
1840.99	665.48
1841.34	762.48
1841.68	826.92
1842.02	882.44
1842.36	961.36
1842.71	950.4
1843.05	829.84
1843.39	810
1843.73	849.48
1844.08	885.2
1844.42	986.36
1844.76	1081.36
1845.1	1053.32
1845.45	988.64
1845.79	962.68
1846.13	915.04
1846.47	875.92
1846.81	844.36
1847.16	841.92
1847.5	862.16
1847.84	891.68
1848.18	918.16
1848.53	959.04
1848.87	967.76
1849.21	927.96
1849.55	875.52
1849.89	833.76
1850.24	799.8
1850.58	776.92
1850.92	753.8
1851.26	740.2
1851.6	730.84
1851.95	719.6
1852.29	712.48
1852.63	692.52
1852.97	668.56
1853.31	635.56
1853.66	601.36
1854	596.8
1854.34	605.4
1854.68	632.92
1855.02	656.2
1855.36	679.04
1855.71	665.68
1856.05	650.96
1856.39	612.96
1856.73	581.68
1857.07	567.24
1857.41	557
1857.76	546.68
1858.1	547.8
1858.44	532.2
1858.78	518.24
1859.12	499.16
1859.46	471.68
1859.8	439
1860.15	414.96
1860.49	418.24
1860.83	449.64
1861.17	482.76
1861.51	487.28
1861.85	500.52
1862.19	477.2
1862.53	439.04
1862.88	420.4
1863.22	420.64
1863.56	412.92
1863.9	410.96
1864.24	417.4
1864.58	396.92
1864.92	384.2
1865.26	383.52
1865.6	370.6
1865.94	340.32
1866.29	324.32
1866.63	305.68
1866.97	286.44
1867.31	272.6
1867.65	259.36
1867.99	260.28
1868.33	254.6
1868.67	241.92
1869.01	235.28
1869.35	243.8
1869.69	266.2
1870.03	286.52
1870.37	310.88
1870.72	334.8
1871.06	329.88
1871.4	290.8
1871.74	261.64
1872.08	232.56
1872.42	216.68
1872.76	230.32
1873.1	243.4
1873.44	246.04
1873.78	243.36
1874.12	224.8
1874.46	191.08
1874.8	186
1875.14	207.68
1875.48	219.36
1875.82	229.08
1876.16	238.08
1876.5	238.24
1876.84	220.56
1877.18	211.04
1877.52	200.88
1877.86	185.64
1878.2	162.64
1878.54	141.28
1878.88	130.48
1879.22	123
1879.56	116.24
1879.9	110.4
1880.24	107.28
1880.58	101.68
1880.92	104.92
1881.26	109.6
1881.6	103.88
1881.94	98.36
1882.28	94.92
1882.62	90.48
1882.96	96.36
1883.3	112.68
1883.64	120
1883.98	120.72
1884.32	117.04
1884.66	98.88
1885	78.48
1885.34	70.16
1885.68	69.96
1886.02	64.28
1886.36	62.92
1886.7	61
1887.04	56.76
1887.38	48.76
1887.72	44.24
1888.06	40.04
1888.39	38.56
1888.73	38.72
1889.07	49.16
1889.41	61.64
1889.75	67.08
1890.09	79.44
1890.43	93.32
1890.77	87.96
1891.11	76.24
1891.45	69.36
1891.79	54.84
1892.13	35.64
1892.47	27.8
1892.8	26.12
1893.14	28.76
1893.48	30.24
1893.82	36.76
1894.16	39.56
1894.5	39.88
1894.84	36.56
1895.18	34.44
1895.52	28.76
1895.86	27.04
1896.19	27.64
1896.53	30.76
1896.87	33.28
1897.21	33.2
1897.55	35.28
1897.89	36.48
1898.23	44
1898.57	45
1898.9	45.12
1899.24	44.12
1899.58	44.16
1899.92	36.84
1900.26	33.6
1900.6	35.84
1900.94	36.6
1901.27	37.48
1901.61	37.64
1901.95	41.68
1902.29	42.32
1902.63	44.48
1902.97	46.08
1903.3	48.92
1903.64	50.52
1903.98	52.4
1904.32	53.72
1904.66	54.4
1905	54.72
1905.33	55.28
1905.67	59.24
1906.01	62.08
1906.35	67.08
1906.69	68.16
1907.02	70.68
1907.36	70.08
1907.7	72.44
1908.04	71.6
1908.38	75.68
1908.71	76.8
1909.05	78.36
1909.39	77.84
1909.73	78.92
1910.07	77.88
1910.4	79.68
1910.74	81.12
1911.08	82.04
1911.42	84.72
1911.76	87.8
1912.09	87.6
1912.43	90.28
1912.77	92.64
1913.11	94.2
1913.44	94.32
1913.78	98.8
1914.12	100.12
1914.46	104.24
1914.79	105.04
1915.13	108.32
1915.47	105.44
1915.81	105.52
1916.14	103.56
1916.48	105.04
1916.82	106.12
1917.16	110.6
1917.49	112.52
1917.83	114.84
1918.17	116.2
1918.5	116.08
1918.84	114.56
1919.18	117.52
1919.52	118.12
1919.85	118.16
1920.19	121.24
1920.53	125.04
1920.87	125.32
1921.2	127
1921.54	129.32
1921.88	129.68
1922.21	129.96
1922.55	132.04
1922.89	133.48
1923.22	134.36
1923.56	136.08
1923.9	135.96
1924.23	136.04
1924.57	135.12
1924.91	137.04
1925.25	137
1925.58	141.68
1925.92	141.4
1926.26	143.88
1926.59	141.92
1926.93	144.92
1927.27	143.92
1927.6	144.16
1927.94	142.56
1928.28	145.2
1928.61	141.48
1928.95	141.76
1929.29	141.52
1929.62	144
1929.96	141.96
1930.29	144.4
1930.63	145.52
1930.97	147.8
1931.3	149.96
1931.64	152.12
1931.98	152.36
1932.31	150.52
1932.65	151.36
1932.99	148.92
1933.32	150.12
1933.66	152.08
1933.99	153.12
1934.33	152.68
1934.67	153.76
1935	154.2
1935.34	151.56
1935.67	153.56
1936.01	152.48
1936.35	151.68
1936.68	149.44
1937.02	150.16
1937.35	146.4
1937.69	146.44
1938.03	145.76
1938.36	144.84
1938.7	146.52
1939.03	145.56
1939.37	145.2
1939.7	145.72
1940.04	147.72
1940.38	143.08
1940.71	145.24
1941.05	145.84
1941.38	144.04
1941.72	141.56
1942.05	141.6
1942.39	139.28
1942.73	136.6
1943.06	138.32
1943.4	137.36
1943.73	137.16
1944.07	136.64
1944.4	136.8
1944.74	133.08
1945.07	132.6
1945.41	131.52
1945.74	129.36
1946.08	128.88
1946.42	128.84
1946.75	127.68
1947.09	127.12
1947.42	128.44
1947.76	126.52
1948.09	124.92
1948.43	124.36
1948.76	123.8
1949.1	121.76
1949.43	121.08
1949.77	120
1950.1	118.8
1950.44	116.8
1950.77	116.8
1951.11	114.6
1951.44	114.28
1951.78	113.76
1952.11	114.04
1952.45	110.28
1952.78	109.6
1953.12	109.72
1953.45	107.04
1953.79	104.24
1954.12	104.76
1954.46	103.72
1954.79	100.44
1955.12	99.76
1955.46	98.12
1955.79	95.88
1956.13	93.08
1956.46	92.64
1956.8	88.12
1957.13	86.04
1957.47	85.28
1957.8	85.16
1958.14	81.56
1958.47	81.28
1958.8	79.04
1959.14	76.68
1959.47	73.56
1959.81	74.12
1960.14	74.24
1960.48	74.32
1960.81	72.08
1961.14	71.2
1961.48	68.8
1961.81	66.56
1962.15	64.36
1962.48	63.92
1962.82	61.36
1963.15	59.32
1963.48	57.88
1963.82	56.84
1964.15	53.96
1964.49	52.48
1964.82	49.68
1965.15	46.64
1965.49	43.44
1965.82	42.36
1966.16	41.4
1966.49	40.2
1966.82	38.4
1967.16	37.76
1967.49	35
1967.83	32.56
1968.16	31
1968.49	29.16
1968.83	28.24
1969.16	29
1969.49	27.6
1969.83	25.96
1970.16	26.56
1970.49	25.04
1970.83	22.12
1971.16	20.88
1971.5	20.04
1971.83	18.16
1972.16	16.88
1972.5	15.72
1972.83	15.6
1973.16	14.28
1973.5	12.64
1973.83	11.48
1974.16	10.36
1974.5	10.04
1974.83	9.72
1975.16	9.76
1975.5	8.96
1975.83	8.8
1976.16	6.96
1976.49	6.24
1976.83	5.28
1977.16	4.76
1977.49	4
1977.83	3.92
1978.16	4.36
1978.49	4.72
1978.83	4.32
1979.16	3.8
1979.49	3.48
1979.83	2.64
1980.16	2.12
1980.49	1.88
1980.82	2.04
1981.16	2.24
1981.49	1.72
1981.82	1
1982.15	0.68
1982.49	0.52
1982.82	0.08
1983.15	0.16
1983.49	0.36
1983.82	0.4
1984.15	0.52
1984.48	0.56
1984.82	0.76
1985.15	0.72
1985.48	0.6
1985.81	0.48
1986.15	0.68
1986.48	0.44
1986.81	0.56
1987.14	0.64
1987.48	0.68
1987.81	0.44
1988.14	0.32
1988.47	0.32
1988.81	0.36
1989.14	0.4
1989.47	0.36
1989.8	0.36
1990.13	1.2
1990.47	1.16
1990.8	1.44
1991.13	1.8
1991.46	2.12
1991.79	0.72
1992.13	0.4
1992.46	0.12
1992.79	-0.16
1993.12	0.16
1993.45	0.16
1993.79	1.04
1994.12	1.36
1994.45	1.88
1994.78	1.52
1995.11	2.32
1995.45	1.92
1995.78	3.16
1996.11	3.28
1996.44	3.84
1996.77	3.68
1997.1	4.88
1997.44	3.96
1997.77	4.8
1998.1	5
1998.43	5.76
1998.76	5.84
1999.09	6.32
1999.43	5.48
1999.76	6.76
2000.09	6.8
2000.42	6.92
2000.75	6.8
2001.08	7.48
2001.41	5.88
2001.75	6.92
2002.08	7.96
2002.41	9.68
2002.74	11.24
2003.07	13.96
2003.4	14.2
2003.73	13.88
2004.06	14.52
2004.4	14.88
2004.73	14.88
2005.06	16.88
2005.39	18.04
2005.72	16.84
2006.05	17.08
2006.38	16.96
2006.71	16.28
2007.04	16.52
2007.37	18.2
2007.71	18.64
2008.04	19.56
2008.37	20.92
2008.7	20.72
2009.03	20.44
2009.36	20.2
2009.69	19.32
2010.02	18.12
2010.35	18.36
2010.68	18.4
2011.01	19.4
2011.34	20.12
2011.67	20.24
2012.01	21
2012.34	21.76
2012.67	21.36
2013	21.28
2013.33	22.04
2013.66	21.2
2013.99	20.08
2014.32	21.12
2014.65	20.96
2014.98	19.4
2015.31	19.72
2015.64	19.96
2015.97	18.08
2016.3	18.16
2016.63	17.72
2016.96	17.84
2017.29	16.6
2017.62	16.12
2017.95	16.2
2018.28	17.32
2018.61	15.36
2018.94	16.16
2019.27	15.92
2019.6	15.64
2019.93	14.68
2020.26	14.28
2020.59	13.24
2020.92	13.8
2021.25	12.2
2021.58	12.36
2021.91	12.44
2022.24	12.12
2022.57	10.4
2022.9	11.32
2023.23	11.04
2023.56	10.4
2023.89	10.72
2024.22	10.52
2024.55	8.08
2024.88	6.96
2025.21	6.6
2025.54	5.56
2025.87	5.08
2026.2	5.64
2026.53	4.84
2026.86	5.36
2027.19	5.04
2027.52	4.36
2027.85	4.44
2028.18	4.84
2028.51	3.92
2028.84	4.56
2029.16	4.6
2029.49	3.72
2029.82	2.96
2030.15	2.68
2030.48	0.92
2030.81	1.04
2031.14	0.76
2031.47	0.8
2031.8	1.6
2032.13	2
2032.46	1.92
2032.79	2.36
2033.12	2.12
2033.44	1.24
2033.77	1.76
2034.1	1.48
2034.43	1.56
2034.76	2.24
2035.09	2.44
2035.42	2.4
2035.75	2.28
2036.08	1.8
2036.41	1.24
2036.73	1.6
2037.06	1.36
2037.39	1.36
2037.72	1.36
2038.05	1.2
2038.38	0.52
2038.71	0.48
2039.04	-0.12
2039.36	-0.2
2039.69	-0.36
2040.02	-0.6
2040.35	-0.56
2040.68	0.04
2041.01	1.33221e-17
2041.34	0.08
2041.66	0.52
2041.99	0.6
2042.32	0.64
2042.65	0.68
2042.98	0.6
2043.31	0.4
2043.63	0.08
2043.96	0.36
2044.29	0.32
2044.62	0.64
2044.95	0.92
2045.28	0.92
2045.6	0.6
2045.93	0.6
2046.26	0.28
2046.59	0.44
2046.92	0.72
2047.24	0.8
2047.57	1.16
2047.9	1.16
2048.23	0.76
2048.56	0.48
2048.88	0.52
2049.21	0.36
2049.54	0.36
2049.87	0.52
2050.2	0.52
2050.52	0.96
2050.85	0.76
2051.18	1
2051.51	1.16
2051.83	1.16
2052.16	0.68
2052.49	1
2052.82	0.76
2053.15	0.2
2053.47	0.44
2053.8	0.36
2054.13	0.28
2054.46	0.32
2054.78	0.6
2055.11	0.56
2055.44	0.56
2055.77	0.36
2056.09	0.48
2056.42	0.56
2056.75	0.72
2057.08	1.04
2057.4	1.04
2057.73	0.96
2058.06	1.12
2058.38	0.88
2058.71	1.08
2059.04	1.24
2059.37	1.16
2059.69	0.96
2060.02	1.52
2060.35	1.16
2060.67	1.56
2061	1.76
2061.33	1.44
2061.66	1.04
2061.98	1.52
2062.31	1.32
2062.64	1.4
2062.96	2.56
2063.29	2.44
2063.62	2.28
2063.94	2.28
2064.27	2.24
2064.6	0.72
2064.92	0.72
2065.25	0.56
2065.58	0.56
2065.91	0.76
2066.23	1.56
2066.56	1.44
2066.89	1.32
2067.21	1.4
2067.54	1.56
2067.87	1.84
2068.19	2.08
2068.52	1.88
2068.84	1.48
2069.17	0.88
2069.5	0.52
2069.82	0.48
2070.15	0.84
2070.48	1.4
2070.8	1.48
2071.13	1.6
2071.46	1.36
2071.78	1.48
2072.11	1.48
2072.43	1.64
2072.76	1.44
2073.09	1.52
2073.41	1.32
2073.74	0.68
2074.07	0.64
2074.39	0.56
2074.72	0.52
2075.04	0.48
2075.37	0.48
2075.7	0.32
2076.02	0.32
2076.35	0.6
2076.67	0.36
2077	0.44
2077.33	0.48
2077.65	0.48
2077.98	0.28
2078.3	0.28
2078.63	0.28
2078.95	0.36
2079.28	0.44
2079.61	-0.24
2079.93	-0.24
2080.26	-0.28
2080.58	-0.04
2080.91	1.17683e-16
2081.23	0.68
2081.56	0.84
2081.89	0.96
2082.21	0.92
2082.54	0.8
2082.86	0.68
2083.19	0.68
2083.51	0.52
2083.84	0.16
2084.16	0.24
2084.49	0.32
2084.81	0.52
2085.14	0.92
2085.46	1.08
2085.79	1
2086.12	1
2086.44	1
2086.77	0.88
2087.09	1.04
2087.42	1.04
2087.74	1.08
2088.07	0.88
2088.39	0.64
2088.72	0.36
2089.04	0.4
2089.37	0.44
2089.69	0.44
2090.02	0.56
2090.34	0.12
2090.67	0.08
2090.99	-1.96
2091.32	-2.12
2091.64	-2.2
2091.97	-1.72
2092.29	-1.64
2092.62	0.8
2092.94	0.8
2093.26	0.96
2093.59	1.08
2093.91	-0.12
2094.24	-0.16
2094.56	-0.16
2094.89	-0.28
2095.21	-0.48
2095.54	0.8
2095.86	0.48
2096.19	0.56
2096.51	0.64
2096.84	0.88
2097.16	0.76
2097.48	0.56
2097.81	0.64
2098.13	0.56
2098.46	-0.04
2098.78	7.21672e-18
2099.11	0.32
2099.43	0.32
2099.75	0.2
2100.08	0.56
2100.4	0.52
2100.73	0.2
2101.05	0.04
2101.38	0.04
2101.7	0.04
2102.02	0.16
2102.35	0.44
2102.67	1.04
2103	1.2
2103.32	1.2
2103.64	1.2
2103.97	0.96
2104.29	0.48
2104.62	0.36
2104.94	1.04
2105.26	0.56
2105.59	1
2105.91	0.88
2106.23	1.44
2106.56	1.12
2106.88	1.68
2107.21	1.4
2107.53	1.84
2107.85	1.24
2108.18	0.96
2108.5	1.12
2108.82	1.12
2109.15	0.88
2109.47	0.92
2109.79	1
2110.12	0.6
2110.44	0.64
2110.76	0.44
2111.09	0.52
2111.41	0.72
2111.73	0.96
2112.06	0.92
2112.38	1
2112.7	0.4
2113.03	0.04
2113.35	-0.04
2113.67	-0.2
2114	0.04
2114.32	0.68
2114.64	0.8
2114.97	0.92
2115.29	1.12
2115.61	0.92
2115.94	0.8
2116.26	1.28
2116.58	1.4
2116.91	0.16
2117.23	0.4
2117.55	0.36
2117.87	0.28
2118.2	-0.04
2118.52	0.96
2118.84	0.64
2119.17	0.72
2119.49	0.36
2119.81	0.28
2120.13	0.48
2120.46	0.44
2120.78	-0.64
2121.1	-0.72
2121.42	-0.56
2121.75	-0.76
2122.07	-0.04
2122.39	1.32
2122.72	1.24
2123.04	1.24
2123.36	1.36
2123.68	0.84
2124.01	0.56
2124.33	0.68
2124.65	0.52
2124.97	0.4
2125.29	0.36
2125.62	0.6
2125.94	0.48
2126.26	0.48
2126.58	0.68
2126.91	-0.48
2127.23	-0.8
2127.55	-0.8
2127.87	-0.44
2128.2	-0.64
2128.52	0.76
2128.84	0.76
2129.16	1
2129.48	0.64
2129.81	0.64
2130.13	0.36
2130.45	0.48
2130.77	0.32
2131.09	0.52
2131.42	0.6
2131.74	0.56
2132.06	0.44
2132.38	0.52
2132.7	0.32
2133.02	0.56
2133.35	0.96
2133.67	1.2
2133.99	1.04
2134.31	0.44
2134.63	0.24
2134.96	-0.12
2135.28	-0.32
2135.6	-0.2
2135.92	0.4
2136.24	0.48
2136.56	0.56
2136.88	0.52
2137.21	0.4
2137.53	0.48
2137.85	0.4
2138.17	-0.2
2138.49	0
2138.81	0.2
2139.13	0.2
2139.46	0.08
2139.78	0.84
2140.1	0.64
2140.42	0.52
2140.74	0.6
2141.06	1.2
2141.38	0.84
2141.7	1
2142.03	0.92
2142.35	0.76
2142.67	0.32
2142.99	0.32
2143.31	0.56
2143.63	0.6
2143.95	0.6
2144.27	0.52
2144.59	1.12
2144.91	0.52
2145.24	0.52
2145.56	0.72
2145.88	0.64
2146.2	0.04
2146.52	0.4
2146.84	0.36
2147.16	0.24
2147.48	0.56
2147.8	0.88
2148.12	0.76
2148.44	0.8
2148.76	1.08
2149.08	0.76
2149.41	0.64
2149.73	0.6
2150.05	0.56
2150.37	0.64
2150.69	0.64
2151.01	0.48
2151.33	0.84
2151.65	0.84
2151.97	0.64
2152.29	0.64
2152.61	0.64
2152.93	0.28
2153.25	0.28
2153.57	0.04
2153.89	0.12
2154.21	-0.28
2154.53	-0.12
2154.85	0.52
2155.17	0.64
2155.49	0.44
2155.81	0.8
2156.13	1
2156.45	0.52
2156.77	0.48
2157.09	0.8
2157.41	0.88
2157.73	0.6
2158.05	0.44
2158.37	0.4
2158.69	0.36
2159.01	0.64
2159.33	0.72
2159.65	1
2159.97	1.04
2160.29	1.24
2160.61	0.88
2160.93	0.72
2161.25	0.44
2161.57	0.36
2161.89	0
2162.21	0.36
2162.53	0.36
2162.85	-0.24
2163.17	-0.12
2163.49	-0.12
2163.81	-0.48
2164.13	-0.48
2164.45	-0.48
2164.77	-0.52
2165.08	-0.32
2165.4	-0.32
2165.72	-0.12
2166.04	0.48
2166.36	0.4
2166.68	0.24
2167	0.48
2167.32	0.28
2167.64	0.28
2167.96	0.48
2168.28	0.44
2168.6	0.2
2168.92	0.2
2169.24	0.24
2169.55	0.08
2169.87	0.12
2170.19	0.12
2170.51	0.12
2170.83	0.44
2171.15	0.4
2171.47	0.52
2171.79	0.6
2172.11	0.6
2172.43	0.24
2172.74	0.24
2173.06	0.12
2173.38	0.2
2173.7	0.2
2174.02	0.2
2174.34	0.28
2174.66	0.24
2174.98	0.32
2175.29	0.32
2175.61	0.32
2175.93	0.24
2176.25	0.4
2176.57	0.28
2176.89	0.6
2177.21	0.8
2177.52	0.8
2177.84	0.64
2178.16	0.52
2178.48	0.2
2178.8	0.04
2179.12	0.44
2179.43	0.56
2179.75	-0.04
2180.07	0.08
2180.39	0.24
2180.71	-0.12
2181.03	-0.24
2181.34	0.36
2181.66	0.36
2181.98	0.64
2182.3	0.84
2182.62	1.12
2182.93	1
2183.25	0.88
2183.57	0.44
2183.89	0.4
2184.21	0.12
2184.52	0.28
2184.84	0.32
2185.16	0.56
2185.48	0.52
2185.8	0.64
2186.11	0.6
2186.43	0.6
2186.75	0.52
2187.07	0.16
2187.39	-0.64
2187.7	-0.28
2188.02	-0.8
2188.34	-0.92
2188.66	-0.48
2188.97	0.2
2189.29	0.08
2189.61	0.56
2189.93	0.52
2190.24	0.32
2190.56	0.68
2190.88	0.44
2191.2	0.76
2191.51	0.76
2191.83	0.8
2192.15	0.56
2192.47	0.56
2192.78	0.4
2193.1	0.44
2193.42	0.68
2193.74	0.56
2194.05	0.84
2194.37	0.76
2194.69	0.84
2195	0.32
2195.32	0.36
2195.64	0.32
2195.96	0.32
2196.27	0.52
2196.59	0.32
2196.91	0.4
2197.22	0.16
2197.54	0.24
2197.86	-0.12
2198.18	0.84
2198.49	0.84
2198.81	0.84
2199.13	0.76
2199.44	0.96
2199.76	0.68
2200.08	0.56
2200.39	0.56
2200.71	0.6
2201.03	0.68
2201.34	0.56
2201.66	0.56
2201.98	0.84
2202.29	0.84
2202.61	0.56
2202.93	0.4
2203.24	0.52
2203.56	0.28
2203.88	0.2
2204.19	0.28
2204.51	0.52
2204.83	0.44
2205.14	0.48
2205.46	0.72
2205.78	0.76
2206.09	0.6
2206.41	0.56
2206.72	0.28
2207.04	0
2207.36	-0.48
2207.67	-0.56
2207.99	-0.52
2208.31	-0.24
2208.62	0.36
2208.94	0.76
2209.25	0.8
2209.57	0.88
2209.89	0.8
2210.2	0.28
2210.52	0.4
2210.83	0.4
2211.15	0.28
2211.47	0.6
2211.78	0.52
2212.1	0.12
2212.41	0.32
2212.73	0.8
2213.05	0.76
2213.36	0.84
2213.68	1.08
2213.99	0.84
2214.31	0.44
2214.62	0.52
2214.94	0.44
2215.26	0.44
2215.57	0.44
2215.89	0.48
2216.2	0.52
2216.52	0.88
2216.83	0.88
2217.15	0.88
2217.46	0.76
2217.78	0.6
2218.1	0.04
2218.41	0.04
2218.73	0.08
2219.04	0.24
2219.36	0.08
2219.67	0.52
2219.99	0.68
2220.3	0.64
2220.62	0.48
2220.93	0.4
2221.25	0.16
2221.56	0.04
2221.88	0.04
2222.19	0.04
2222.51	0.04
2222.82	-1.36
2223.14	-1.36
2223.45	-1.28
2223.77	-1.28
2224.08	-1.28
2224.4	0.12
2224.71	0.6
2225.03	0.76
2225.34	0.76
2225.66	-0.56
2225.97	-0.52
2226.29	-1
2226.6	-1.24
2226.92	-1.04
2227.23	0.32
2227.55	0.28
2227.86	0.28
2228.18	0.56
2228.49	0.36
2228.81	0.32
2229.12	0.56
2229.44	0.84
2229.75	0.84
2230.07	0.84
2230.38	0.84
2230.69	0.72
2231.01	0.44
2231.32	0.2
2231.64	0.2
2231.95	0.2
2232.27	0.08
2232.58	0.04
2232.9	0.08
2233.21	0.28
2233.52	0.28
2233.84	0.4
2234.15	0.4
2234.47	0.72
2234.78	0.64
2235.1	0.64
2235.41	0.52
2235.72	0.64
2236.04	0.8
2236.35	0.92
2236.67	0.32
2236.98	0.32
2237.29	0.28
2237.61	-0.28
2237.92	-0.32
2238.24	0.36
2238.55	0.48
2238.86	0.4
2239.18	0.4
2239.49	-0.6
2239.8	-0.6
2240.12	-0.72
2240.43	-0.4
2240.75	-0.24
2241.06	0.68
2241.37	0.6
2241.69	0.6
2242	0.28
2242.31	0.28
2242.63	0.36
2242.94	0.52
2243.26	-2.88398e-17
2243.57	0.16
2243.88	0.44
2244.2	0.24
2244.51	0.08
2244.82	0.84
2245.14	0.84
2245.45	0.64
2245.76	0.84
2246.08	0.84
2246.39	0.64
2246.7	0.68
2247.02	0.48
2247.33	0.28
2247.64	0.28
2247.96	0.32
2248.27	0.12
2248.58	-0.8
2248.9	-0.48
2249.21	-0.48
2249.52	-0.52
2249.83	-0.52
2250.15	0.8
2250.46	0.96
2250.77	1.08
2251.09	1.32
2251.4	1.72
2251.71	1.28
2252.03	0.92
2252.34	0.8
2252.65	0.52
2252.96	0.12
2253.28	0.24
2253.59	0.24
2253.9	0.48
2254.21	0.68
2254.53	0.68
2254.84	0.16
2255.15	0.08
2255.47	0.12
2255.78	0.24
2256.09	0.44
2256.4	0.84
2256.72	0.8
2257.03	0.52
2257.34	0.2
2257.65	0
2257.97	0.04
2258.28	0.04
2258.59	0.24
2258.9	0.48
2259.22	0.48
2259.53	0.56
2259.84	0.64
2260.15	0.44
2260.46	0.2
2260.78	0.2
2261.09	0.48
2261.4	0.96
2261.71	0.96
2262.03	1.08
2262.34	1.44
2262.65	1.04
2262.96	0.64
2263.27	0.96
2263.59	0.92
2263.9	0.64
2264.21	0.88
2264.52	1
2264.83	0.68
2265.15	0.6
2265.46	0.52
2265.77	0.28
2266.08	0
2266.39	0.08
2266.7	0.36
2267.02	0.36
2267.33	0.08
2267.64	0.16
2267.95	0.12
2268.26	-0.16
2268.57	0.52
2268.89	0.8
2269.2	0.72
2269.51	0.92
2269.82	1.16
2270.13	0.76
2270.44	0.8
2270.76	0.4
2271.07	0.16
2271.38	-0.68
2271.69	-0.8
2272	-0.48
2272.31	-0.24
2272.62	-1.04
2272.93	-0.44
2273.25	-0.6
2273.56	-0.88
2273.87	-0.72
2274.18	0.12
2274.49	0.16
2274.8	0.52
2275.11	0.44
2275.42	0.44
2275.74	0.56
2276.05	0.52
2276.36	0.24
2276.67	0.24
2276.98	0.4
2277.29	0.24
2277.6	0.32
2277.91	0.24
2278.22	0.04
2278.53	-0.12
2278.85	0.24
2279.16	-0.84
2279.47	-0.32
2279.78	-0.12
2280.09	3.44166e-17
2280.4	-0.16
2280.71	1.04
2281.02	0.52
2281.33	0.92
2281.64	0.8
2281.95	0.96
2282.26	0.92
2282.57	0.96
2282.88	0.56
2283.19	0.56
2283.5	0.2
2283.82	0.04
2284.13	0.08
2284.44	0.08
2284.75	-0.36
2285.06	-0.36
2285.37	-0.2
2285.68	-0.28
2285.99	-0.28
2286.3	0.36
2286.61	0.52
2286.92	0.36
2287.23	0.52
2287.54	0.52
2287.85	0.32
2288.16	0.16
2288.47	0.28
2288.78	0.12
2289.09	0.2
2289.4	0.24
2289.71	0.4
2290.02	0.28
2290.33	0.28
2290.64	0.2
2290.95	0.08
2291.26	0.16
2291.57	0.16
2291.88	-0.24
2292.19	-0.2
2292.5	-0.12
2292.81	-0.36
2293.12	-0.36
2293.43	0.04
2293.74	0
2294.05	0
2294.36	0
2294.67	0
2294.98	0
2295.29	0
2295.6	0
2295.91	0
2296.21	0
2296.52	0
2296.83	0
2297.14	0
2297.45	0
2297.76	0
2298.07	0
2298.38	0
2298.69	0
2299	0
2299.31	0
2299.62	0
2299.93	0
2300.24	0
2300.55	0
2300.85	0
2301.16	0
2301.47	0
2301.78	0
2302.09	0
2302.4	0
2302.71	0
2303.02	0
2303.33	0
2303.64	0
2303.94	0
2304.25	0
2304.56	0
2304.87	0
2305.18	0
2305.49	0
2305.8	0
2306.11	0
2306.42	0
2306.72	0
2307.03	0
2307.34	0
2307.65	0
2307.96	0
2308.27	0
2308.58	0
2308.88	0
2309.19	0
2309.5	0
2309.81	0
2310.12	0
2310.43	0
2310.74	0
2311.04	0
2311.35	0
2311.66	0
2311.97	0
2312.28	0
2312.59	0
2312.89	0
2313.2	0
2313.51	0
2313.82	0
2314.13	0
2314.43	0
2314.74	0
2315.05	0
2315.36	0
2315.67	0
2315.97	0
2316.28	0
2316.59	0
2316.9	0
2317.21	0
2317.51	0
2317.82	0
2318.13	0
2318.44	0
2318.75	0
2319.05	0
2319.36	0
2319.67	0
2319.98	0
2320.28	0
2320.59	0
2320.9	0
2321.21	0
2321.51	0
2321.82	0
2322.13	0
2322.44	0
2322.74	0
2323.05	0
2323.36	0
2323.67	0
2323.97	0
2324.28	0
2324.59	0
2324.9	0
2325.2	0
2325.51	0
2325.82	0
2326.13	0
2326.43	0
2326.74	0
2327.05	0
2327.35	0
2327.66	0
2327.97	0
2328.27	0
2328.58	0
2328.89	0
2329.2	0
2329.5	0
2329.81	0
2330.12	0
2330.42	0
2330.73	0
2331.04	0
2331.34	0
2331.65	0
2331.96	0
2332.26	0
2332.57	0
2332.88	0
2333.18	0
2333.49	0
2333.8	0
2334.1	0
2334.41	0
2334.72	0
2335.02	0
2335.33	0
2335.64	0
2335.94	0
2336.25	0
2336.56	0
2336.86	0
2337.17	0
2337.48	0
2337.78	0
2338.09	0
2338.39	0
2338.7	0
2339.01	0
2339.31	0
2339.62	0
2339.93	0
2340.23	0
2340.54	0
2340.84	0
2341.15	0
2341.46	0
2341.76	0
2342.07	0
2342.37	0
2342.68	0
2342.99	0
2343.29	0
2343.6	0
2343.9	0
2344.21	0
2344.51	0
2344.82	0
2345.13	0
2345.43	0
2345.74	0
2346.04	0
2346.35	0
2346.65	0
2346.96	0
2347.27	0
2347.57	0
2347.88	0
2348.18	0
2348.49	0
2348.79	0
2349.1	0
2349.4	0
2349.71	0
2350.01	0
2350.32	0
2350.63	0
2350.93	0
2351.24	0
2351.54	0
2351.85	0
2352.15	0
2352.46	0
2352.76	0
2353.07	0
2353.37	0
2353.68	0
2353.98	0
2354.29	0
2354.59	0
2354.9	0
2355.2	0
2355.51	0
2355.81	0
2356.12	0
2356.42	0
2356.73	0
2357.03	0
2357.34	0
2357.64	0
2357.95	0
2358.25	0
2358.55	0
2358.86	0
2359.16	0
2359.47	0
2359.77	0
2360.08	0
2360.38	0
2360.69	0
2360.99	0
2361.3	0
2361.6	0
2361.9	0
2362.21	0
2362.51	0
2362.82	0
2363.12	0
2363.43	0
2363.73	0
2364.04	0
2364.34	0
2364.64	0
2364.95	0
2365.25	0
2365.56	0
2365.86	0
2366.16	0
2366.47	0
2366.77	0
2367.08	0
2367.38	0
2367.68	0
2367.99	0
2368.29	0
2368.6	0
2368.9	0
2369.2	0
2369.51	0
2369.81	0
2370.12	0
2370.42	0
2370.72	0
2371.03	0
2371.33	0
2371.63	0
2371.94	0
2372.24	0
2372.55	0
2372.85	0
2373.15	0
2373.46	0
2373.76	0
2374.06	0
2374.37	0
2374.67	0
2374.97	0
2375.28	0
2375.58	0
2375.88	0
2376.19	0
2376.49	0
2376.79	0
2377.1	0
2377.4	0
2377.7	0
2378.01	0
2378.31	0
2378.61	0
2378.92	0
2379.22	0
2379.52	0
2379.82	0
2380.13	0
2380.43	0
2380.73	0
2381.04	0
2381.34	0
2381.64	0
2381.95	0
2382.25	0
2382.55	0
2382.85	0
2383.16	0
2383.46	0
2383.76	0
2384.06	0
2384.37	0
2384.67	0
2384.97	0
2385.28	0
2385.58	0
2385.88	0
2386.18	0
2386.49	0
2386.79	0
2387.09	0
2387.39	0
2387.69	0
2388	0
2388.3	0
2388.6	0
2388.9	0
2389.21	0
2389.51	0
2389.81	0
2390.11	0
2390.42	0
2390.72	0
2391.02	0
2391.32	0
2391.62	0
2391.93	0
2392.23	0
2392.53	0
2392.83	0
2393.13	0
2393.44	0
2393.74	0
2394.04	0
2394.34	0
2394.64	0
2394.95	0
2395.25	0
2395.55	0
2395.85	0
2396.15	0
2396.45	0
2396.76	0
2397.06	0
2397.36	0
2397.66	0
2397.96	0
2398.26	0
2398.57	0
2398.87	0
2399.17	0
2399.47	0
2399.77	0
2400.07	0
2400.37	0
2400.68	0
2400.98	0
2401.28	0
2401.58	0
2401.88	0
2402.18	0
2402.48	0
2402.79	0
2403.09	0
2403.39	0
2403.69	0
2403.99	0
2404.29	0
2404.59	0
2404.89	0
2405.19	0
2405.5	0
2405.8	0
2406.1	0
2406.4	0
2406.7	0
2407	0
2407.3	0
2407.6	0
2407.9	0
2408.2	0
2408.5	0
2408.8	0
2409.11	0
2409.41	0
2409.71	0
2410.01	0
2410.31	0
2410.61	0
2410.91	0
2411.21	0
2411.51	0
2411.81	0
2412.11	0
2412.41	0
2412.71	0
2413.01	0
2413.31	0
2413.61	0
2413.91	0
2414.21	0
2414.51	0
2414.81	0
2415.12	0
2415.42	0
2415.72	0
2416.02	0
2416.32	0
2416.62	0
2416.92	0
2417.22	0
2417.52	0
2417.82	0
2418.12	0
2418.42	0
2418.72	0
2419.02	0
2419.32	0
2419.62	0
2419.92	0
2420.22	0
2420.52	0
2420.82	0
2421.12	0
2421.42	0
2421.71	0
2422.01	0
2422.31	0
2422.61	0
2422.91	0
2423.21	0
2423.51	0
2423.81	0
2424.11	0
2424.41	0
2424.71	0
2425.01	0
2425.31	0
2425.61	0
2425.91	0
2426.21	0
2426.51	0
2426.81	0
2427.11	0
2427.41	0
2427.7	0
2428	0
2428.3	0
2428.6	0
2428.9	0
2429.2	0
2429.5	0
2429.8	0
2430.1	0
2430.4	0
2430.7	0
2430.99	0
2431.29	0
2431.59	0
2431.89	0
2432.19	0
2432.49	0
2432.79	0
2433.09	0
2433.39	0
2433.68	0
2433.98	0
2434.28	0
2434.58	0
2434.88	0
2435.18	0
2435.48	0
2435.78	0
2436.07	0
2436.37	0
2436.67	0
2436.97	0
2437.27	0
2437.57	0
2437.86	0
2438.16	0
2438.46	0
2438.76	0
2439.06	0
2439.36	0
2439.66	0
2439.95	0
2440.25	0
2440.55	0
2440.85	0
2441.15	0
2441.44	0
2441.74	0
2442.04	0
2442.34	0
2442.64	0
2442.93	0
2443.23	0
2443.53	0
2443.83	0
2444.13	0
2444.42	0
2444.72	0
2445.02	0
2445.32	0
2445.62	0
2445.91	0
2446.21	0
2446.51	0
2446.81	0
2447.1	0
2447.4	0
2447.7	0
2448	0
2448.3	0
2448.59	0
2448.89	0
2449.19	0
2449.49	0
2449.78	0
2450.08	0
2450.38	0
2450.68	0
2450.97	0
2451.27	0
2451.57	0
2451.87	0
2452.16	0
2452.46	0
2452.76	0
2453.05	0
2453.35	0
2453.65	0
2453.95	0
2454.24	0
2454.54	0
2454.84	0
2455.13	0
2455.43	0
2455.73	0
2456.03	0
2456.32	0
2456.62	0
2456.92	0
2457.21	0
2457.51	0
2457.81	0
2458.1	0
2458.4	0
2458.7	0
2458.99	0
2459.29	0
2459.59	0
2459.88	0
2460.18	0
2460.48	0
2460.77	0
2461.07	0
2461.37	0
2461.66	0
2461.96	0
2462.26	0
2462.55	0
2462.85	0
2463.15	0
2463.44	0
2463.74	0
2464.04	0
2464.33	0
2464.63	0
2464.92	0
2465.22	0
2465.52	0
2465.81	0
2466.11	0
2466.41	0
2466.7	0
2467	0
2467.29	0
2467.59	0
2467.89	0
2468.18	0
2468.48	0
2468.77	0
2469.07	0
2469.37	0
2469.66	0
2469.96	0
2470.25	0
2470.55	0
2470.84	0
2471.14	0
2471.44	0
2471.73	0
2472.03	0
2472.32	0
2472.62	0
2472.91	0
2473.21	0
2473.51	0
2473.8	0
2474.1	0
2474.39	0
2474.69	0
2474.98	0
2475.28	0
2475.57	0
2475.87	0
2476.17	0
2476.46	0
2476.76	0
2477.05	0
2477.35	0
2477.64	0
2477.94	0
2478.23	0
2478.53	0
2478.82	0
2479.12	0
2479.41	0
2479.71	0
2480	0
2480.3	0
2480.59	0
2480.89	0
2481.18	0
2481.48	0
2481.77	0
2482.07	0
2482.36	0
2482.66	0
2482.95	0
2483.25	0
2483.54	0
2483.84	0
2484.13	0
2484.43	0
2484.72	0
2485.02	0
2485.31	0
2485.6	0
2485.9	0
2486.19	0
2486.49	0
2486.78	0
2487.08	0
2487.37	0
2487.67	0
2487.96	0
2488.26	0
2488.55	0
2488.84	0
2489.14	0
2489.43	0
2489.73	0
2490.02	0
2490.32	0
2490.61	0
2490.9	0
2491.2	0
2491.49	0
2491.79	0
2492.08	0
2492.37	0
2492.67	0
2492.96	0
2493.26	0
2493.55	0
2493.84	0
2494.14	0
2494.43	0
2494.73	0
2495.02	0
2495.31	0
2495.61	0
2495.9	0
2496.2	0
2496.49	0
2496.78	0
2497.08	0
2497.37	0
2497.66	0
2497.96	0
2498.25	0
2498.54	0
2498.84	0
2499.13	0
2499.43	0
2499.72	0
2500.01	0
2500.31	0
2500.6	0
2500.89	0
2501.19	0
2501.48	0
2501.77	0
2502.07	0
2502.36	0
2502.65	0
2502.95	0
2503.24	0
2503.53	0
2503.82	0
2504.12	0
2504.41	0
2504.7	0
2505	0
2505.29	0
2505.58	0
2505.88	0
2506.17	0
2506.46	0
2506.76	0
2507.05	0
2507.34	0
2507.63	0
2507.93	0
2508.22	0
2508.51	0
2508.8	0
2509.1	0
2509.39	0
2509.68	0
2509.98	0
2510.27	0
2510.56	0
2510.85	0
2511.15	0
2511.44	0
2511.73	0
2512.02	0
2512.32	0
2512.61	0
2512.9	0
2513.19	0
2513.49	0
2513.78	0
2514.07	0
2514.36	0
2514.65	0
2514.95	0
2515.24	0
2515.53	0
2515.82	0
2516.12	0
2516.41	0
2516.7	0
2516.99	0
2517.28	0
2517.58	0
2517.87	0
2518.16	0
2518.45	0
2518.74	0
2519.04	0
2519.33	0
2519.62	0
2519.91	0
2520.2	0
2520.5	0
2520.79	0
2521.08	0
2521.37	0
2521.66	0
2521.95	0
2522.25	0
2522.54	0
2522.83	0
2523.12	0
2523.41	0
2523.7	0
2523.99	0
2524.29	0
2524.58	0
2524.87	0
2525.16	0
2525.45	0
2525.74	0
2526.03	0
2526.33	0
2526.62	0
2526.91	0
2527.2	0
2527.49	0
2527.78	0
2528.07	0
2528.36	0
2528.66	0
2528.95	0
2529.24	0
2529.53	0
2529.82	0
2530.11	0
2530.4	0
2530.69	0
2530.98	0
2531.27	0
2531.57	0
2531.86	0
2532.15	0
2532.44	0
2532.73	0
2533.02	0
2533.31	0
2533.6	0
2533.89	0
2534.18	0
2534.47	0
2534.76	0
2535.05	0
2535.35	0
2535.64	0
2535.93	0
2536.22	0
2536.51	0
2536.8	0
2537.09	0
2537.38	0
2537.67	0
2537.96	0
2538.25	0
2538.54	0
2538.83	0
2539.12	0
2539.41	0
2539.7	0
2539.99	0
2540.28	0
2540.57	0
2540.86	0
2541.15	0
2541.44	0
2541.73	0
2542.02	0
2542.31	0
2542.6	0
2542.89	0
2543.18	0
2543.47	0
2543.76	0
2544.05	0
2544.34	0
2544.63	0
2544.92	0
2545.21	0
2545.5	0
2545.79	0
2546.08	0
2546.37	0
2546.66	0
2546.95	0
2547.24	0
2547.53	0
2547.82	0
2548.11	0
2548.4	0
2548.69	0
2548.98	0
2549.27	0
2549.55	0
2549.84	0
2550.13	0
2550.42	0
2550.71	0
2551	0
2551.29	0
2551.58	0
2551.87	0
2552.16	0
2552.45	0
2552.74	0
2553.03	0
2553.31	0
2553.6	0
2553.89	0
2554.18	0
2554.47	0
2554.76	0
2555.05	0
2555.34	0
2555.63	0
2555.92	0
2556.2	0
2556.49	0
2556.78	0
2557.07	0
2557.36	0
2557.65	0
2557.94	0
2558.23	0
2558.51	0
2558.8	0
2559.09	0
2559.38	0
2559.67	0
2559.96	0
2560.25	0
2560.53	0
2560.82	0
2561.11	0
2561.4	0
2561.69	0
2561.98	0
2562.27	0
2562.55	0
2562.84	0
2563.13	0
2563.42	0
2563.71	0
2564	0
2564.28	0
2564.57	0
2564.86	0
2565.15	0
2565.44	0
2565.72	0
2566.01	0
2566.3	0
2566.59	0
2566.88	0
2567.16	0
2567.45	0
2567.74	0
2568.03	0
2568.32	0
2568.6	0
2568.89	0
2569.18	0
2569.47	0
2569.75	0

