Source: Spectrum Viewer

Chart: Pulse Spectrum

Series: 
Wavelength (nm)	S (a.u.)
1179.9	0
1180.29	0
1180.68	0
1181.06	0
1181.45	0
1181.83	0
1182.22	0
1182.6	0
1182.99	0
1183.38	0
1183.76	0
1184.15	0
1184.53	0
1184.92	0
1185.3	0
1185.69	0
1186.07	0
1186.46	0
1186.85	0
1187.23	0
1187.62	0
1188	0
1188.39	0
1188.77	0
1189.16	0
1189.54	0
1189.93	0
1190.31	0
1190.7	0
1191.08	0
1191.47	0
1191.85	0
1192.24	0
1192.62	0
1193.01	0
1193.39	0
1193.78	0
1194.16	0
1194.55	0
1194.93	0
1195.32	0
1195.7	0
1196.09	0
1196.47	0
1196.86	0
1197.24	0
1197.63	0
1198.01	0
1198.4	0
1198.78	0
1199.16	0
1199.55	0
1199.93	0
1200.32	0
1200.7	0
1201.09	0
1201.47	0
1201.86	0
1202.24	0
1202.63	0
1203.01	0
1203.39	0
1203.78	0
1204.16	0
1204.55	0
1204.93	0
1205.32	0
1205.7	0
1206.08	0
1206.47	0
1206.85	0
1207.24	0
1207.62	0
1208	0
1208.39	0
1208.77	0
1209.16	0
1209.54	0
1209.92	0
1210.31	0
1210.69	0
1211.08	0
1211.46	0
1211.84	0
1212.23	0
1212.61	0
1213	0
1213.38	0
1213.76	0
1214.15	0
1214.53	0
1214.91	0
1215.3	0
1215.68	0
1216.06	0
1216.45	0
1216.83	0
1217.22	0
1217.6	0
1217.98	0
1218.37	0
1218.75	0
1219.13	0
1219.52	0
1219.9	0
1220.28	0
1220.67	0
1221.05	0
1221.43	0
1221.82	0
1222.2	0
1222.58	0
1222.97	0
1223.35	0
1223.73	0
1224.11	0
1224.5	0
1224.88	0
1225.26	0
1225.65	0
1226.03	0
1226.41	0
1226.8	0
1227.18	0
1227.56	0
1227.94	0
1228.33	0
1228.71	0
1229.09	0
1229.47	0
1229.86	0
1230.24	0
1230.62	0
1231.01	0
1231.39	0
1231.77	0
1232.15	0
1232.54	0
1232.92	0
1233.3	0
1233.68	0
1234.07	0
1234.45	0
1234.83	0
1235.21	0
1235.6	0
1235.98	0
1236.36	0
1236.74	0
1237.12	0
1237.51	0
1237.89	0
1238.27	0
1238.65	0
1239.04	0
1239.42	0
1239.8	0
1240.18	0
1240.56	0
1240.95	0
1241.33	0
1241.71	0
1242.09	0
1242.47	0
1242.86	0
1243.24	0
1243.62	0
1244	0
1244.38	0
1244.77	0
1245.15	0
1245.53	0
1245.91	0
1246.29	0
1246.67	0
1247.06	0
1247.44	0
1247.82	0
1248.2	0
1248.58	0
1248.96	0
1249.34	0
1249.73	0
1250.11	0
1250.49	0
1250.87	0
1251.25	0
1251.63	0
1252.01	0
1252.4	0
1252.78	0
1253.16	0
1253.54	0
1253.92	0
1254.3	0
1254.68	0
1255.06	0
1255.45	0
1255.83	0
1256.21	0
1256.59	0
1256.97	0
1257.35	0
1257.73	0
1258.11	0
1258.49	0
1258.87	0
1259.26	0
1259.64	0
1260.02	0
1260.4	0
1260.78	0
1261.16	0
1261.54	0
1261.92	0
1262.3	0
1262.68	0
1263.06	0
1263.44	0
1263.82	0
1264.21	0
1264.59	0
1264.97	0
1265.35	0
1265.73	0
1266.11	0
1266.49	0
1266.87	0
1267.25	0
1267.63	0
1268.01	0
1268.39	0
1268.77	0
1269.15	0
1269.53	0
1269.91	0
1270.29	0
1270.67	0
1271.05	0
1271.43	0
1271.81	0
1272.19	0
1272.57	0
1272.95	0
1273.33	0
1273.71	0
1274.09	0
1274.47	0
1274.85	0
1275.23	0
1275.61	0
1275.99	0
1276.37	0
1276.75	0
1277.13	0
1277.51	0
1277.89	0
1278.27	0
1278.65	0
1279.03	0
1279.41	0
1279.79	0
1280.17	0
1280.55	0
1280.93	0
1281.31	0
1281.69	0
1282.07	0
1282.45	0
1282.82	0
1283.2	0
1283.58	0
1283.96	0
1284.34	0
1284.72	0
1285.1	0
1285.48	0
1285.86	0
1286.24	0
1286.62	0
1287	0
1287.38	0
1287.75	0
1288.13	0
1288.51	0
1288.89	0
1289.27	0
1289.65	0
1290.03	0
1290.41	0
1290.79	0
1291.17	0
1291.54	0
1291.92	0
1292.3	0
1292.68	0
1293.06	0
1293.44	0
1293.82	0
1294.2	0
1294.57	0
1294.95	0
1295.33	0
1295.71	0
1296.09	0
1296.47	0
1296.85	0
1297.22	0
1297.6	0
1297.98	0
1298.36	0
1298.74	0
1299.12	0
1299.5	0
1299.87	0
1300.25	0
1300.63	0
1301.01	0
1301.39	0
1301.77	0
1302.14	0
1302.52	0
1302.9	0
1303.28	0
1303.66	0
1304.03	0
1304.41	0
1304.79	0
1305.17	0
1305.55	0
1305.92	0
1306.3	0
1306.68	0
1307.06	0
1307.44	0
1307.81	0
1308.19	0
1308.57	0
1308.95	0
1309.32	0
1309.7	0
1310.08	0
1310.46	0
1310.84	0
1311.21	0
1311.59	0
1311.97	0
1312.35	0
1312.72	0
1313.1	0
1313.48	0
1313.86	0
1314.23	0
1314.61	0
1314.99	0
1315.37	0
1315.74	0
1316.12	0
1316.5	0
1316.87	0
1317.25	0
1317.63	0
1318.01	0
1318.38	0
1318.76	0
1319.14	0
1319.52	0
1319.89	0
1320.27	0
1320.65	0
1321.02	0
1321.4	0
1321.78	0
1322.15	0
1322.53	0
1322.91	0
1323.29	0
1323.66	0
1324.04	0
1324.42	0
1324.79	0
1325.17	0
1325.55	0
1325.92	0
1326.3	0
1326.68	0
1327.05	0
1327.43	0
1327.81	0
1328.18	0
1328.56	0
1328.94	0
1329.31	0
1329.69	0
1330.06	0
1330.44	0
1330.82	0
1331.19	0
1331.57	0
1331.95	0
1332.32	0
1332.7	0
1333.08	0
1333.45	0
1333.83	0
1334.2	0
1334.58	0
1334.96	0
1335.33	0
1335.71	0
1336.08	0
1336.46	0
1336.84	0
1337.21	0
1337.59	0
1337.96	0
1338.34	0
1338.72	0
1339.09	0
1339.47	0
1339.84	0
1340.22	0
1340.6	0
1340.97	0
1341.35	0
1341.72	0
1342.1	0
1342.47	0
1342.85	0
1343.23	0
1343.6	0
1343.98	0
1344.35	0
1344.73	0
1345.1	0
1345.48	0
1345.85	0
1346.23	0
1346.61	0
1346.98	0
1347.36	0
1347.73	0
1348.11	0
1348.48	0
1348.86	0
1349.23	0
1349.61	0
1349.98	0
1350.36	0
1350.73	0
1351.11	0
1351.48	0
1351.86	0
1352.23	0
1352.61	0
1352.98	0
1353.36	0
1353.73	0
1354.11	0
1354.48	0
1354.86	0
1355.23	0
1355.61	0
1355.98	0
1356.36	0
1356.73	0
1357.11	0
1357.48	0
1357.86	0
1358.23	0
1358.61	0
1358.98	0
1359.35	0
1359.73	0
1360.1	0
1360.48	0
1360.85	0
1361.23	0
1361.6	0
1361.98	0
1362.35	0
1362.72	0
1363.1	0
1363.47	0
1363.85	0
1364.22	0
1364.6	0
1364.97	0
1365.34	0
1365.72	0
1366.09	0
1366.47	0
1366.84	0
1367.22	0
1367.59	0
1367.96	0
1368.34	0
1368.71	0
1369.09	0.2
1369.46	-0.64
1369.83	-0.64
1370.21	-0.52
1370.58	-0.48
1370.96	-0.64
1371.33	0.6
1371.7	0.64
1372.08	0.6
1372.45	0.56
1372.82	0.52
1373.2	0.12
1373.57	0.16
1373.95	0.44
1374.32	0.44
1374.69	0.6
1375.07	0.6
1375.44	0.52
1375.81	0.16
1376.19	0.16
1376.56	0.16
1376.93	0.16
1377.31	0.4
1377.68	0.4
1378.05	0.4
1378.43	0.24
1378.8	0.28
1379.17	0.04
1379.55	0.16
1379.92	0.16
1380.29	0.16
1380.67	0.12
1381.04	0.12
1381.41	0
1381.79	0.04
1382.16	0.12
1382.53	0.12
1382.91	-0.76
1383.28	-0.56
1383.65	-0.6
1384.03	-0.68
1384.4	-0.6
1384.77	0.28
1385.14	0.08
1385.52	0.08
1385.89	0.08
1386.26	0.64
1386.64	0.84
1387.01	0.88
1387.38	1
1387.75	1
1388.13	0.52
1388.5	0.32
1388.87	0.36
1389.25	0.44
1389.62	0.44
1389.99	0.12
1390.36	0.28
1390.74	0.32
1391.11	0.44
1391.48	0.52
1391.85	1.04
1392.23	0.88
1392.6	0.92
1392.97	0.68
1393.34	0.6
1393.72	0.56
1394.09	1.04
1394.46	1
1394.83	0.92
1395.21	1.2
1395.58	1.04
1395.95	0.92
1396.32	0.8
1396.69	0.8
1397.07	0.6
1397.44	0.44
1397.81	0.56
1398.18	0.56
1398.55	0.64
1398.93	0.64
1399.3	0.72
1399.67	0.32
1400.04	0.32
1400.41	0.24
1400.79	0.16
1401.16	0.08
1401.53	0.12
1401.9	0.2
1402.27	0.2
1402.65	0.4
1403.02	0.4
1403.39	0.44
1403.76	-0.04
1404.13	2.4425e-17
1404.51	-0.08
1404.88	0.12
1405.25	-0.04
1405.62	0.36
1405.99	0.32
1406.36	0.28
1406.74	0.08
1407.11	0.08
1407.48	0.08
1407.85	-1.12
1408.22	-1.12
1408.59	-0.92
1408.96	-0.88
1409.34	-0.84
1409.71	0.44
1410.08	0.36
1410.45	0.16
1410.82	0.28
1411.19	0.24
1411.56	0.36
1411.93	0.36
1412.31	0.36
1412.68	0.2
1413.05	0.64
1413.42	0.52
1413.79	0.52
1414.16	0.52
1414.53	0.56
1414.9	-0.08
1415.27	-0.16
1415.65	-0.16
1416.02	-0.16
1416.39	0.04
1416.76	0.32
1417.13	0.32
1417.5	0.44
1417.87	0.44
1418.24	0.2
1418.61	0.2
1418.98	0.24
1419.35	0.12
1419.73	0.4
1420.1	0.56
1420.47	0.76
1420.84	0.76
1421.21	0.76
1421.58	0.8
1421.95	0.68
1422.32	0.72
1422.69	0.76
1423.06	0.76
1423.43	0.44
1423.8	0.44
1424.17	0.12
1424.54	0.28
1424.91	0.28
1425.28	0.4
1425.65	0.48
1426.02	0.56
1426.39	0.32
1426.76	-0.2
1427.14	-0.24
1427.51	-0.12
1427.88	0.16
1428.25	0.16
1428.62	0.68
1428.99	0.6
1429.36	0.4
1429.73	0.24
1430.1	0.24
1430.47	0.48
1430.84	0.52
1431.21	0.48
1431.58	0.28
1431.95	0.28
1432.32	-0.16
1432.69	0.12
1433.06	0.52
1433.43	0.56
1433.8	0.96
1434.17	1.2
1434.54	0.88
1434.91	0.52
1435.28	0.48
1435.64	0.16
1436.01	-0.48
1436.38	-0.16
1436.75	-0.2
1437.12	0.04
1437.49	-0.04
1437.86	0.56
1438.23	0.24
1438.6	0.36
1438.97	0.28
1439.34	0.32
1439.71	0.84
1440.08	1
1440.45	0.88
1440.82	0.12
1441.19	0.08
1441.56	-0.44
1441.93	-0.52
1442.3	-0.48
1442.67	-1.32
1443.03	-1.32
1443.4	-1.28
1443.77	-1.32
1444.14	-1.36
1444.51	0.08
1444.88	0.24
1445.25	0.24
1445.62	0.24
1445.99	0.24
1446.36	0.32
1446.73	0.2
1447.09	0.16
1447.46	0.24
1447.83	0.52
1448.2	0.44
1448.57	0.4
1448.94	0.4
1449.31	0.28
1449.68	0.32
1450.05	0.56
1450.41	0.64
1450.78	0.24
1451.15	0.24
1451.52	-0.08
1451.89	0.2
1452.26	0.28
1452.63	0.88
1453	0.88
1453.36	0.88
1453.73	0.36
1454.1	0.28
1454.47	0.24
1454.84	0.64
1455.21	0.64
1455.57	0.48
1455.94	0.48
1456.31	0.32
1456.68	0.04
1457.05	0.04
1457.42	0.2
1457.78	0.28
1458.15	0.32
1458.52	0.36
1458.89	0.48
1459.26	0.48
1459.63	0.32
1459.99	0.36
1460.36	0.2
1460.73	0.24
1461.1	0.44
1461.47	0.56
1461.83	0.48
1462.2	0.64
1462.57	0.6
1462.94	0.4
1463.31	0.6
1463.67	0.6
1464.04	0.24
1464.41	0.12
1464.78	-0.32
1465.15	-0.64
1465.51	-0.12
1465.88	0.08
1466.25	0.12
1466.62	0.56
1466.98	0.56
1467.35	0.04
1467.72	0.16
1468.09	0.32
1468.46	0.52
1468.82	0.8
1469.19	0.8
1469.56	0.92
1469.93	0.72
1470.29	0.72
1470.66	0.44
1471.03	0.44
1471.4	0.24
1471.76	0.24
1472.13	0.04
1472.5	0.04
1472.86	0.32
1473.23	0.28
1473.6	0.4
1473.97	0.6
1474.33	0.76
1474.7	0.52
1475.07	0.68
1475.44	0.6
1475.8	0.4
1476.17	0.44
1476.54	0.4
1476.9	0.4
1477.27	0.56
1477.64	0.6
1478	0.4
1478.37	0.4
1478.74	0.48
1479.11	0.28
1479.47	0.36
1479.84	0.52
1480.21	0.72
1480.57	0.68
1480.94	0.68
1481.31	0.56
1481.67	0.56
1482.04	0.72
1482.41	0.72
1482.77	1
1483.14	1.36
1483.51	1.28
1483.87	0.96
1484.24	0.84
1484.61	0.76
1484.97	0.68
1485.34	0.6
1485.71	-0.32
1486.07	-0.16
1486.44	-0.36
1486.81	-0.64
1487.17	-0.64
1487.54	0.24
1487.9	0.44
1488.27	0.44
1488.64	0.32
1489	0.32
1489.37	0.88
1489.74	0.72
1490.1	0.92
1490.47	1.04
1490.83	1.2
1491.2	1.12
1491.57	1.2
1491.93	1.4
1492.3	1.64
1492.66	1.52
1493.03	1.08
1493.4	0.72
1493.76	0.32
1494.13	0.2
1494.49	0.16
1494.86	0.12
1495.23	0.24
1495.59	0.24
1495.96	-1.2
1496.32	-1.2
1496.69	-1.12
1497.06	-1.04
1497.42	-1.8
1497.79	-0.48
1498.15	-0.44
1498.52	-0.4
1498.88	-0.16
1499.25	0.64
1499.62	0.44
1499.98	0.68
1500.35	0.56
1500.71	0.4
1501.08	0.48
1501.44	0.88
1501.81	0.6
1502.17	0.84
1502.54	0.64
1502.9	0.8
1503.27	0.6
1503.64	0.6
1504	1.04
1504.37	1.16
1504.73	0.92
1505.1	1.04
1505.46	1.04
1505.83	0.36
1506.19	0.16
1506.56	0.52
1506.92	0.52
1507.29	0.52
1507.65	0.52
1508.02	0.52
1508.38	0.12
1508.75	0.04
1509.11	0.04
1509.48	0.16
1509.84	0.36
1510.21	0.36
1510.57	0.32
1510.94	0.32
1511.3	0.36
1511.67	0.16
1512.03	0.44
1512.4	0.56
1512.76	0.56
1513.13	-0.52
1513.49	-0.68
1513.85	-0.68
1514.22	-0.8
1514.58	-0.8
1514.95	0.12
1515.31	0.52
1515.68	0.44
1516.04	0.8
1516.41	1.4
1516.77	1.48
1517.14	1.48
1517.5	1.32
1517.86	0.96
1518.23	0.36
1518.59	0.28
1518.96	0.04
1519.32	0.2
1519.69	0.32
1520.05	0.56
1520.41	0.76
1520.78	0.8
1521.14	0.64
1521.51	0.64
1521.87	0.4
1522.24	0.2
1522.6	0.4
1522.96	0.4
1523.33	0.4
1523.69	0.4
1524.06	0.4
1524.42	0.2
1524.78	0.16
1525.15	0.16
1525.51	0.16
1525.88	0.24
1526.24	0.2
1526.6	0.2
1526.97	0.24
1527.33	0.32
1527.69	0.24
1528.06	0.32
1528.42	0.44
1528.79	0.36
1529.15	-0.2
1529.51	-0.12
1529.88	-0.12
1530.24	-0.04
1530.6	0.12
1530.97	0.64
1531.33	1.24
1531.69	1.16
1532.06	1.08
1532.42	0.88
1532.78	0.84
1533.15	0.44
1533.51	0.44
1533.87	0.32
1534.24	0.28
1534.6	0.44
1534.96	0.44
1535.33	0.44
1535.69	0.44
1536.05	0.48
1536.42	0.32
1536.78	0.04
1537.14	0.28
1537.51	0.4
1537.87	0.68
1538.23	0.76
1538.6	0.88
1538.96	0.64
1539.32	0.52
1539.68	0.2
1540.05	0.2
1540.41	0.16
1540.77	0.16
1541.14	0.36
1541.5	0.36
1541.86	0.32
1542.23	0.36
1542.59	0.44
1542.95	0.44
1543.31	0.44
1543.68	0.4
1544.04	0.28
1544.4	0.44
1544.76	0.24
1545.13	0.56
1545.49	0.6
1545.85	0.88
1546.21	0.88
1546.58	0.88
1546.94	0.68
1547.3	0.64
1547.66	0.36
1548.03	0.32
1548.39	0.36
1548.75	0.24
1549.11	0.24
1549.48	0.24
1549.84	0.04
1550.2	0.16
1550.56	0.6
1550.93	0.6
1551.29	0.6
1551.65	0.96
1552.01	1.24
1552.37	0.8
1552.74	0.8
1553.1	0.92
1553.46	0.68
1553.82	0.64
1554.18	0.68
1554.55	0.68
1554.91	0.96
1555.27	0.84
1555.63	0.48
1555.99	0.44
1556.36	0.44
1556.72	-1.56
1557.08	-1.56
1557.44	-1.4
1557.8	-1.4
1558.17	-1.4
1558.53	0.44
1558.89	0.44
1559.25	0.4
1559.61	0.44
1559.97	0.52
1560.34	0.28
1560.7	0.32
1561.06	0.16
1561.42	0.24
1561.78	0.28
1562.14	-0.08
1562.5	-0.12
1562.87	-0.04
1563.23	-0.16
1563.59	-0.48
1563.95	-0.08
1564.31	0.08
1564.67	1.44334e-17
1565.03	0.2
1565.4	0.4
1565.76	0.36
1566.12	0.2
1566.48	0.2
1566.84	0.04
1567.2	0.28
1567.56	0.08
1567.92	0.08
1568.29	0.36
1568.65	0.68
1569.01	0.52
1569.37	0.32
1569.73	0.32
1570.09	0.04
1570.45	-0.24
1570.81	-0.28
1571.17	0.2
1571.53	0.2
1571.89	0.2
1572.26	0.16
1572.62	0.12
1572.98	0.08
1573.34	0.24
1573.7	0.32
1574.06	0.36
1574.42	0.6
1574.78	0.44
1575.14	0.28
1575.5	0.2
1575.86	-0.68
1576.22	-0.92
1576.58	-0.8
1576.94	-0.68
1577.3	-0.68
1577.67	0.12
1578.03	0.24
1578.39	0.24
1578.75	0.28
1579.11	0.64
1579.47	1.04
1579.83	1.36
1580.19	1.36
1580.55	1.24
1580.91	0.88
1581.27	0.64
1581.63	0.44
1581.99	0.56
1582.35	0.8
1582.71	0.96
1583.07	1.28
1583.43	1.04
1583.79	1
1584.15	0.96
1584.51	1
1584.87	0.52
1585.23	0.6
1585.59	0.52
1585.95	0.4
1586.31	0.28
1586.67	0.48
1587.03	0.48
1587.39	0.68
1587.75	0.56
1588.11	0.48
1588.47	0.64
1588.83	0.72
1589.19	0.84
1589.55	0.84
1589.91	1.16
1590.27	0.88
1590.63	0.84
1590.99	0.84
1591.35	0.84
1591.71	0.56
1592.07	0.48
1592.42	0.4
1592.78	0.08
1593.14	0.08
1593.5	0.12
1593.86	0.4
1594.22	0.44
1594.58	0.52
1594.94	0.6
1595.3	0.52
1595.66	0.24
1596.02	0.16
1596.38	0.64
1596.74	0.56
1597.1	0.56
1597.46	0.56
1597.81	0.68
1598.17	0.28
1598.53	0.28
1598.89	0.52
1599.25	0.52
1599.61	0.4
1599.97	0.32
1600.33	0.32
1600.69	0.16
1601.05	0.16
1601.4	0.24
1601.76	-0.12
1602.12	0.16
1602.48	0.16
1602.84	0.24
1603.2	0.16
1603.56	0.44
1603.92	0.32
1604.28	0.28
1604.63	0.6
1604.99	0.6
1605.35	0.84
1605.71	0.68
1606.07	0.64
1606.43	0.76
1606.79	0.8
1607.14	0.56
1607.5	0.76
1607.86	1
1608.22	0.48
1608.58	0.48
1608.94	0.48
1609.29	0.4
1609.65	0.04
1610.01	0.16
1610.37	0.76
1610.73	0.84
1611.09	0.88
1611.44	1.12
1611.8	1.16
1612.16	1.16
1612.52	1.24
1612.88	1.08
1613.24	1.16
1613.59	1
1613.95	0.56
1614.31	0.48
1614.67	0.48
1615.03	0.6
1615.38	0.6
1615.74	0.4
1616.1	0.32
1616.46	0.32
1616.82	0
1617.17	0.28
1617.53	0.28
1617.89	0.28
1618.25	0.28
1618.6	0.28
1618.96	0.04
1619.32	0.04
1619.68	0.08
1620.04	0.4
1620.39	0.68
1620.75	0.64
1621.11	0.64
1621.47	1
1621.82	0.68
1622.18	0.44
1622.54	0.48
1622.9	0.48
1623.25	-0.92
1623.61	-0.92
1623.97	-0.64
1624.33	-0.6
1624.68	-0.68
1625.04	0.32
1625.4	0.32
1625.75	-0.48
1626.11	-0.56
1626.47	-0.36
1626.83	-0.32
1627.18	-0.32
1627.54	0.64
1627.9	0.64
1628.26	0.88
1628.61	1.12
1628.97	1.12
1629.33	0.64
1629.68	0.84
1630.04	0.48
1630.4	-0.28
1630.75	-0.2
1631.11	-0.04
1631.47	-0.32
1631.83	-0.28
1632.18	0.52
1632.54	0.68
1632.9	0.68
1633.25	0.8
1633.61	0.88
1633.97	0.76
1634.32	0.52
1634.68	0.44
1635.04	0.56
1635.39	0.44
1635.75	0.24
1636.11	0.28
1636.46	0.2
1636.82	0.08
1637.18	0.16
1637.53	0.16
1637.89	0.24
1638.25	0.32
1638.6	0.44
1638.96	0.36
1639.31	0.52
1639.67	0.4
1640.03	0.44
1640.38	0.28
1640.74	0.28
1641.1	0.56
1641.45	0.76
1641.81	0.64
1642.16	0.64
1642.52	0.64
1642.88	0.24
1643.23	-0.52
1643.59	-0.52
1643.95	-0.52
1644.3	-0.28
1644.66	-0.32
1645.01	0.28
1645.37	0.48
1645.73	0.48
1646.08	0.24
1646.44	0.32
1646.79	-0.32
1647.15	-0.4
1647.51	-0.36
1647.86	-0.36
1648.22	-0.44
1648.57	-0.64
1648.93	-0.68
1649.28	-0.6
1649.64	-0.2
1650	-0.2
1650.35	0.8
1650.71	0.72
1651.06	0.84
1651.42	0.68
1651.77	1
1652.13	0.8
1652.48	0.8
1652.84	0.76
1653.2	1.2
1653.55	1.24
1653.91	1.52
1654.26	1.52
1654.62	1.32
1654.97	0.84
1655.33	0.6
1655.68	0.44
1656.04	0.56
1656.39	0.76
1656.75	0.56
1657.1	0.48
1657.46	0.6
1657.81	0.92
1658.17	0.72
1658.52	1.16
1658.88	1.2
1659.23	0.96
1659.59	0.52
1659.94	0.52
1660.3	0.08
1660.65	0.2
1661.01	0.4
1661.36	0.4
1661.72	0.64
1662.07	0.88
1662.43	0.8
1662.78	0.68
1663.14	1.16
1663.49	1.24
1663.85	1.08
1664.2	1
1664.56	0.96
1664.91	-1.04
1665.27	-1.16
1665.62	-0.84
1665.98	-0.56
1666.33	-0.6
1666.69	1.28
1667.04	1.16
1667.39	0.88
1667.75	0.8
1668.1	1.36
1668.46	1
1668.81	1.68
1669.17	1.88
1669.52	1.84
1669.88	1.56
1670.23	1.6
1670.58	0.92
1670.94	0.88
1671.29	0.68
1671.65	0.4
1672	0.44
1672.36	0.84
1672.71	0.76
1673.06	0.76
1673.42	0.56
1673.77	0.96
1674.13	0.52
1674.48	0.76
1674.83	1.04
1675.19	1.6
1675.54	1.24
1675.9	1.2
1676.25	1.04
1676.6	0.92
1676.96	0.56
1677.31	0.6
1677.67	0.68
1678.02	0.68
1678.37	0.64
1678.73	0.92
1679.08	0.92
1679.43	0.92
1679.79	0.96
1680.14	1.04
1680.5	0.16
1680.85	0.2
1681.2	0.4
1681.56	0.36
1681.91	0.76
1682.26	1.72
1682.62	1.56
1682.97	1.28
1683.32	1.4
1683.68	0.88
1684.03	0.68
1684.38	0.96
1684.74	1.2
1685.09	0.8
1685.44	1
1685.8	0.84
1686.15	0.52
1686.5	0.56
1686.86	0.84
1687.21	0.36
1687.56	0.56
1687.92	0.6
1688.27	0.8
1688.62	0.8
1688.98	1.56
1689.33	1.48
1689.68	1.8
1690.03	1.4
1690.39	1.44
1690.74	1.2
1691.09	1.08
1691.45	0.56
1691.8	0.64
1692.15	0.68
1692.5	0.56
1692.86	0.64
1693.21	0.84
1693.56	0.68
1693.92	0.32
1694.27	-0.32
1694.62	-0.36
1694.97	-0.4
1695.33	-0.24
1695.68	-4.2189e-17
1696.03	0.84
1696.38	0.84
1696.74	1.16
1697.09	0.8
1697.44	0.64
1697.79	0.36
1698.15	0.32
1698.5	0.16
1698.85	0.36
1699.2	-0.52
1699.56	-0.64
1699.91	-0.64
1700.26	-0.6
1700.61	-0.52
1700.97	0.28
1701.32	0.36
1701.67	0.36
1702.02	0.56
1702.37	0.48
1702.73	0.72
1703.08	0.68
1703.43	0.76
1703.78	0.36
1704.13	0.64
1704.49	0.52
1704.84	0.6
1705.19	0.52
1705.54	0.72
1705.89	0.68
1706.25	0.72
1706.6	0.76
1706.95	1
1707.3	0.88
1707.65	0.84
1708.01	0.68
1708.36	0.6
1708.71	0.36
1709.06	0.36
1709.41	0.16
1709.76	0.2
1710.12	0.2
1710.47	0.32
1710.82	0.44
1711.17	0.68
1711.52	0.76
1711.87	0.68
1712.23	0.64
1712.58	0.48
1712.93	0.64
1713.28	0.6
1713.63	1.04
1713.98	1.24
1714.33	1.36
1714.69	1.12
1715.04	1.04
1715.39	0.6
1715.74	0.36
1716.09	0.64
1716.44	0.48
1716.79	0.6
1717.14	0.64
1717.5	0.8
1717.85	0.36
1718.2	0.68
1718.55	0.64
1718.9	0.6
1719.25	0.6
1719.6	0.64
1719.95	0.36
1720.3	0.48
1720.65	0.8
1721.01	0.8
1721.36	0.76
1721.71	0.96
1722.06	0.6
1722.41	0.76
1722.76	0.56
1723.11	0.92
1723.46	0.68
1723.81	0.88
1724.16	0.56
1724.51	1
1724.86	1.48
1725.21	1.72
1725.56	2.2
1725.92	2.04
1726.27	1.84
1726.62	1.8
1726.97	2
1727.32	1.36
1727.67	2
1728.02	2.16
1728.37	2.48
1728.72	2.44
1729.07	3.88
1729.42	4.36
1729.77	4.4
1730.12	4.36
1730.47	4.84
1730.82	5.12
1731.17	5.28
1731.52	6.8
1731.87	6.72
1732.22	7.24
1732.57	7
1732.92	8.36
1733.27	7.8
1733.62	9.4
1733.97	10
1734.32	11.08
1734.67	10.64
1735.02	12.2
1735.37	13.4
1735.72	15.2
1736.07	16.12
1736.42	17.2
1736.77	17.8
1737.12	18.48
1737.47	19.6
1737.82	21.12
1738.17	21.6
1738.52	23.48
1738.87	24.52
1739.22	25.08
1739.57	26.04
1739.92	28.72
1740.27	30.08
1740.62	32
1740.97	32.68
1741.32	34.6
1741.67	35.68
1742.02	38.28
1742.37	38.84
1742.72	42.16
1743.06	44.2
1743.41	47.48
1743.76	47.56
1744.11	48.92
1744.46	50
1744.81	50.04
1745.16	50.6
1745.51	53
1745.86	56.04
1746.21	58.84
1746.56	62.68
1746.91	64.2
1747.26	65.56
1747.6	67.52
1747.95	68.04
1748.3	69.16
1748.65	73.12
1749	75.48
1749.35	77.08
1749.7	81
1750.05	82.88
1750.4	83.96
1750.75	84.2
1751.09	85.84
1751.44	88
1751.79	89.44
1752.14	91.2
1752.49	95.2
1752.84	95.28
1753.19	97.32
1753.54	100.32
1753.88	102.04
1754.23	106.08
1754.58	110.2
1754.93	110.64
1755.28	113.48
1755.63	115.04
1755.98	113.88
1756.32	117.28
1756.67	118.4
1757.02	119.4
1757.37	121.04
1757.72	121.72
1758.07	123.6
1758.42	126.56
1758.76	127.2
1759.11	130.28
1759.46	134.6
1759.81	134.12
1760.16	137.36
1760.5	137.6
1760.85	137.48
1761.2	138.84
1761.55	138.12
1761.9	137.68
1762.25	140.6
1762.59	140.48
1762.94	141.92
1763.29	144.4
1763.64	145
1763.99	147.6
1764.33	148.04
1764.68	148.24
1765.03	150.24
1765.38	148.96
1765.73	149.56
1766.07	152.2
1766.42	152.6
1766.77	155.72
1767.12	155.72
1767.46	157
1767.81	158.88
1768.16	158.84
1768.51	158.44
1768.85	161.84
1769.2	160.64
1769.55	162.8
1769.9	163.44
1770.25	164.48
1770.59	165.84
1770.94	164.4
1771.29	163.64
1771.64	164
1771.98	162.6
1772.33	161.4
1772.68	161.72
1773.02	162.16
1773.37	160.68
1773.72	161.76
1774.07	164.04
1774.41	165.36
1774.76	164.8
1775.11	164.96
1775.46	160
1775.8	156.28
1776.15	152.28
1776.5	146.8
1776.84	147.36
1777.19	148.24
1777.54	148.24
1777.89	152.6
1778.23	154.68
1778.58	155.84
1778.93	158.52
1779.27	156.56
1779.62	157.72
1779.97	159.32
1780.31	157.6
1780.66	156.28
1781.01	155.72
1781.35	151.84
1781.7	149.16
1782.05	149.36
1782.39	146.56
1782.74	146.08
1783.09	143.96
1783.43	142.64
1783.78	141.56
1784.13	142
1784.47	143
1784.82	146.04
1785.17	142.04
1785.51	139.56
1785.86	134.56
1786.21	129.76
1786.55	126.48
1786.9	127.12
1787.25	125.36
1787.59	130.44
1787.94	132.28
1788.29	129.12
1788.63	128.84
1788.98	127.48
1789.32	127.32
1789.67	132.96
1790.02	135.44
1790.36	131.6
1790.71	124.96
1791.06	115.88
1791.4	106.84
1791.75	100.12
1792.09	98.76
1792.44	97.52
1792.79	94.84
1793.13	91.32
1793.48	94
1793.82	95.88
1794.17	97.32
1794.52	105.2
1794.86	107.32
1795.21	108.24
1795.55	122.92
1795.9	135.28
1796.24	120.28
1796.59	111.52
1796.94	102.68
1797.28	89.68
1797.63	78.52
1797.97	85.28
1798.32	97.56
1798.66	100.04
1799.01	91.84
1799.36	96.24
1799.7	101.44
1800.05	96.04
1800.39	103.4
1800.74	115.36
1801.08	109.16
1801.43	102.56
1801.77	98.84
1802.12	87.12
1802.46	70.12
1802.81	66.52
1803.15	66.88
1803.5	70.32
1803.85	80.24
1804.19	95.48
1804.54	100.52
1804.88	105.84
1805.23	113.76
1805.57	114.08
1805.92	102.64
1806.26	98
1806.61	95.08
1806.95	87.64
1807.3	79.56
1807.64	76
1807.99	71.12
1808.33	67.72
1808.68	74.68
1809.02	90.32
1809.37	95.28
1809.71	93.8
1810.06	88.96
1810.4	78.08
1810.75	70.2
1811.09	81.28
1811.43	89.92
1811.78	86.08
1812.12	73.52
1812.47	55.4
1812.81	35.64
1813.16	25.12
1813.5	26.44
1813.85	28.92
1814.19	30
1814.54	31.96
1814.88	36.4
1815.23	39.52
1815.57	49.72
1815.91	72
1816.26	97.16
1816.6	102.6
1816.95	102.64
1817.29	101.4
1817.64	85.44
1817.98	62.92
1818.32	52.04
1818.67	46.44
1819.01	37.92
1819.36	29.72
1819.7	23.84
1820.05	25.16
1820.39	25.2
1820.73	26.28
1821.08	29.24
1821.42	31.28
1821.77	37.32
1822.11	48.36
1822.45	58
1822.8	62.68
1823.14	79.84
1823.49	95.28
1823.83	94.68
1824.17	85.28
1824.52	80.68
1824.86	64.72
1825.2	44.88
1825.55	38.64
1825.89	50.72
1826.24	75.16
1826.58	85.88
1826.92	83.76
1827.27	80.72
1827.61	66.92
1827.95	41.88
1828.3	31.48
1828.64	35.68
1828.98	49.72
1829.33	84.36
1829.67	102
1830.02	103.32
1830.36	105.28
1830.7	95.96
1831.05	61.48
1831.39	43.2
1831.73	40.76
1832.08	36
1832.42	32.72
1832.76	34.28
1833.1	36.48
1833.45	40.36
1833.79	46.72
1834.13	50.8
1834.48	52.84
1834.82	53.32
1835.16	48.84
1835.51	42.4
1835.85	40.12
1836.19	39.92
1836.54	43.64
1836.88	52
1837.22	65.72
1837.56	86.76
1837.91	98.92
1838.25	100.2
1838.59	92.92
1838.94	81.6
1839.28	65.04
1839.62	61.4
1839.96	59.84
1840.31	65.6
1840.65	86.32
1840.99	114.96
1841.34	122.6
1841.68	122.68
1842.02	115.92
1842.36	95.04
1842.71	70.32
1843.05	79
1843.39	97.6
1843.73	107.2
1844.08	110.76
1844.42	103.16
1844.76	75.56
1845.1	54.16
1845.45	50.44
1845.79	48.28
1846.13	47.72
1846.47	51.56
1846.81	59.84
1847.16	67.32
1847.5	73.12
1847.84	72.68
1848.18	69.36
1848.53	60.44
1848.87	49.2
1849.21	41.04
1849.55	41.76
1849.89	44.08
1850.24	47
1850.58	50.32
1850.92	55.52
1851.26	59.36
1851.6	61.48
1851.95	62.44
1852.29	63.52
1852.63	64.24
1852.97	65.84
1853.31	70.72
1853.66	81.24
1854	83.76
1854.34	88.64
1854.68	90.08
1855.02	86.92
1855.36	77.72
1855.71	76.16
1856.05	72.68
1856.39	70.24
1856.73	71.6
1857.07	72.88
1857.41	72.8
1857.76	72.56
1858.1	73.28
1858.44	77.08
1858.78	79.36
1859.12	83.16
1859.46	89.2
1859.8	98.12
1860.15	109.68
1860.49	121.36
1860.83	117.92
1861.17	110.92
1861.51	105.56
1861.85	96.52
1862.19	91.2
1862.53	94.76
1862.88	96.12
1863.22	96.08
1863.56	96.32
1863.9	99.04
1864.24	100.16
1864.58	102.68
1864.92	106.64
1865.26	107.72
1865.6	104.84
1865.94	109.36
1866.29	118.12
1866.63	122.48
1866.97	128.44
1867.31	135.8
1867.65	143.4
1867.99	143.48
1868.33	145.48
1868.67	151.6
1869.01	156.4
1869.35	160.92
1869.69	158.32
1870.03	154.16
1870.37	143.72
1870.72	129.6
1871.06	118.68
1871.4	123.24
1871.74	130.96
1872.08	145.72
1872.42	162.08
1872.76	164.8
1873.1	157.44
1873.44	152.56
1873.78	146.16
1874.12	145.36
1874.46	156.64
1874.8	169.92
1875.14	166.92
1875.48	162.16
1875.82	154.4
1876.16	145.36
1876.5	132.04
1876.84	130.2
1877.18	128.6
1877.52	127.24
1877.86	127.08
1878.2	136.44
1878.54	143.44
1878.88	149.08
1879.22	154.8
1879.56	161.8
1879.9	163.76
1880.24	169.6
1880.58	175.96
1880.92	176.4
1881.26	170.76
1881.6	172.08
1881.94	176.04
1882.28	179.8
1882.62	186.24
1882.96	186.88
1883.3	178.24
1883.64	166.92
1883.98	157.76
1884.32	151.56
1884.66	155.12
1885	165
1885.34	174.72
1885.68	177.52
1886.02	177.28
1886.36	176.6
1886.7	178.2
1887.04	179.8
1887.38	182.8
1887.72	188.88
1888.06	194.96
1888.39	201.68
1888.73	206.72
1889.07	213.36
1889.41	207
1889.75	205.96
1890.09	197.8
1890.43	177.28
1890.77	160
1891.11	158.44
1891.45	153.88
1891.79	154.08
1892.13	168.8
1892.47	180.92
1892.8	187.36
1893.14	192.44
1893.48	196.72
1893.82	192
1894.16	187.48
1894.5	184.64
1894.84	184.48
1895.18	182.84
1895.52	189.76
1895.86	192.92
1896.19	198.28
1896.53	198.84
1896.87	196.96
1897.21	193.84
1897.55	195.12
1897.89	195.08
1898.23	192.28
1898.57	188.44
1898.9	186.56
1899.24	184.48
1899.58	182.88
1899.92	183.68
1900.26	187.52
1900.6	190
1900.94	189.52
1901.27	187.2
1901.61	187.84
1901.95	190.04
1902.29	190.16
1902.63	191.28
1902.97	192.4
1903.3	192
1903.64	190.44
1903.98	187.32
1904.32	186.04
1904.66	184.28
1905	183.04
1905.33	181.92
1905.67	185.08
1906.01	184.44
1906.35	183.4
1906.69	179.16
1907.02	177.08
1907.36	175.32
1907.7	174.56
1908.04	173.72
1908.38	175.6
1908.71	176.12
1909.05	173.48
1909.39	170.16
1909.73	168.04
1910.07	165.68
1910.4	164.48
1910.74	163.68
1911.08	165.36
1911.42	165.12
1911.76	164.12
1912.09	162.12
1912.43	161.72
1912.77	160
1913.11	159.12
1913.44	160.08
1913.78	159.76
1914.12	157.36
1914.46	158.04
1914.79	155.44
1915.13	152.28
1915.47	150.08
1915.81	149.36
1916.14	146.8
1916.48	145.04
1916.82	144.76
1917.16	143.56
1917.49	140.8
1917.83	139.2
1918.17	138.6
1918.5	135.52
1918.84	134.16
1919.18	132.2
1919.52	129.28
1919.85	128.52
1920.19	129.32
1920.53	127.72
1920.87	128.24
1921.2	127.84
1921.54	126.04
1921.88	121.28
1922.21	119.8
1922.55	116.24
1922.89	113.08
1923.22	111.96
1923.56	112.28
1923.9	109.52
1924.23	109.8
1924.57	107.76
1924.91	104.88
1925.25	103.52
1925.58	103.12
1925.92	101.04
1926.26	100.6
1926.59	99.32
1926.93	97.36
1927.27	95.88
1927.6	93.64
1927.94	91.08
1928.28	89.48
1928.61	87.52
1928.95	86.92
1929.29	86.4
1929.62	86
1929.96	84.44
1930.29	84.16
1930.63	81
1930.97	78.76
1931.3	78.48
1931.64	77.52
1931.98	73.88
1932.31	72.08
1932.65	70.4
1932.99	68.52
1933.32	66.6
1933.66	66.48
1933.99	66.72
1934.33	65.88
1934.67	64.52
1935	63.88
1935.34	63.2
1935.67	62.12
1936.01	61.52
1936.35	59.96
1936.68	58.88
1937.02	57.48
1937.35	56.56
1937.69	55.56
1938.03	55.08
1938.36	52.64
1938.7	52.36
1939.03	50.56
1939.37	49.44
1939.7	47.2
1940.04	47.28
1940.38	44.6
1940.71	43.64
1941.05	42.6
1941.38	41.92
1941.72	42.24
1942.05	42.36
1942.39	41.72
1942.73	39.76
1943.06	38.52
1943.4	36.12
1943.73	33.96
1944.07	33.2
1944.4	33.32
1944.74	33.56
1945.07	32.92
1945.41	33.44
1945.74	31.44
1946.08	30.8
1946.42	28.92
1946.75	29.28
1947.09	28.96
1947.42	30.32
1947.76	30.24
1948.09	31
1948.43	30.24
1948.76	29.6
1949.1	27.72
1949.43	25.64
1949.77	23.12
1950.1	22.56
1950.44	22
1950.77	21.96
1951.11	22.68
1951.44	23.84
1951.78	23.88
1952.11	22.36
1952.45	21.96
1952.78	21.4
1953.12	22
1953.45	20.72
1953.79	21.84
1954.12	20.96
1954.46	20
1954.79	18.64
1955.12	20.8
1955.46	18.88
1955.79	18.48
1956.13	19.32
1956.46	20.08
1956.8	17.84
1957.13	19.76
1957.47	20.4
1957.8	19.68
1958.14	17.52
1958.47	16.08
1958.8	14.4
1959.14	13.08
1959.47	12.28
1959.81	12
1960.14	12.76
1960.48	12.92
1960.81	12.92
1961.14	13.16
1961.48	13.64
1961.81	14.2
1962.15	14.76
1962.48	15.84
1962.82	15.56
1963.15	14.56
1963.48	12.76
1963.82	11.48
1964.15	9
1964.49	7.88
1964.82	7.76
1965.15	8.52
1965.49	8.04
1965.82	10
1966.16	11.04
1966.49	11.96
1966.82	11.84
1967.16	12.16
1967.49	12.32
1967.83	12.64
1968.16	12.32
1968.49	12.52
1968.83	12.48
1969.16	11.16
1969.49	9.64
1969.83	9.8
1970.16	8.52
1970.49	7.96
1970.83	8.88
1971.16	8.76
1971.5	6.88
1971.83	6.96
1972.16	6.48
1972.5	5.04
1972.83	4.92
1973.16	6.12
1973.5	7
1973.83	7.48
1974.16	7.56
1974.5	7.48
1974.83	7.64
1975.16	7.44
1975.5	7
1975.83	6.92
1976.16	6.56
1976.49	6.68
1976.83	5.2
1977.16	5.72
1977.49	6
1977.83	6
1978.16	5.4
1978.49	5.6
1978.83	4.24
1979.16	3.32
1979.49	3.16
1979.83	3.6
1980.16	3.08
1980.49	3.8
1980.82	4.32
1981.16	4.52
1981.49	3.36
1981.82	3.64
1982.15	3.16
1982.49	3.12
1982.82	3.16
1983.15	3.72
1983.49	3.76
1983.82	4.32
1984.15	4.52
1984.48	4.44
1984.82	4.44
1985.15	4.6
1985.48	4.28
1985.81	4.12
1986.15	4.56
1986.48	4.56
1986.81	4.4
1987.14	3.6
1987.48	2.64
1987.81	2.44
1988.14	2.04
1988.47	1.68
1988.81	2.36
1989.14	2.36
1989.47	2
1989.8	2.44
1990.13	3
1990.47	2.68
1990.8	2.72
1991.13	3.2
1991.46	2.36
1991.79	1.08
1992.13	0.24
1992.46	0.24
1992.79	-0.4
1993.12	-0.52
1993.45	-0.36
1993.79	1
1994.12	1
1994.45	1.08
1994.78	1.44
1995.11	2.2
1995.45	1.56
1995.78	1.6
1996.11	1.36
1996.44	1.52
1996.77	1.96
1997.1	1.8
1997.44	2.2
1997.77	2.28
1998.1	2.84
1998.43	2.08
1998.76	2.84
1999.09	2.36
1999.43	0.84
1999.76	-0.08
2000.09	-0.16
2000.42	-0.84
2000.75	-2
2001.08	-0.76
2001.41	-0.8
2001.75	-0.48
2002.08	-0.52
2002.41	0.64
2002.74	0.48
2003.07	0.76
2003.4	0.56
2003.73	1.24
2004.06	1.56
2004.4	2.08
2004.73	1.8
2005.06	2.72
2005.39	2.4
2005.72	2.08
2006.05	1.76
2006.38	2.16
2006.71	1.52
2007.04	1.64
2007.37	2.28
2007.71	3.56
2008.04	3.56
2008.37	4.44
2008.7	4.16
2009.03	4.44
2009.36	4.12
2009.69	4.04
2010.02	3.2
2010.35	3.4
2010.68	2.84
2011.01	2.32
2011.34	3.2
2011.67	3.16
2012.01	3.44
2012.34	3.88
2012.67	4.08
2013	3.72
2013.33	4.56
2013.66	4.48
2013.99	4.08
2014.32	3.8
2014.65	3.28
2014.98	2.56
2015.31	2.68
2015.64	2.96
2015.97	3
2016.3	3.08
2016.63	3.56
2016.96	3.48
2017.29	2.92
2017.62	3.04
2017.95	3.36
2018.28	3.24
2018.61	3.44
2018.94	4.92
2019.27	4.84
2019.6	5.44
2019.93	4.72
2020.26	5.12
2020.59	3.92
2020.92	3.88
2021.25	2.96
2021.58	3.6
2021.91	2.96
2022.24	3.76
2022.57	4.64
2022.9	5.08
2023.23	5.12
2023.56	5.04
2023.89	4.76
2024.22	4.96
2024.55	5.8
2024.88	5.72
2025.21	5.88
2025.54	5.28
2025.87	5
2026.2	4.76
2026.53	4.48
2026.86	5.8
2027.19	6.4
2027.52	5.4
2027.85	4.68
2028.18	4.88
2028.51	3.68
2028.84	4.08
2029.16	5.84
2029.49	6.52
2029.82	7.28
2030.15	6.68
2030.48	5.84
2030.81	5
2031.14	4.24
2031.47	3.92
2031.8	5
2032.13	5.96
2032.46	5.04
2032.79	4.76
2033.12	4.96
2033.44	5.36
2033.77	4.64
2034.1	5.4
2034.43	5.92
2034.76	5.64
2035.09	5.04
2035.42	5.4
2035.75	5.2
2036.08	4.68
2036.41	4.72
2036.73	4.84
2037.06	4.08
2037.39	3.6
2037.72	4.04
2038.05	3.68
2038.38	3.52
2038.71	4.32
2039.04	3.72
2039.36	3.84
2039.69	3.28
2040.02	2.48
2040.35	2.32
2040.68	3.28
2041.01	2.56
2041.34	3.68
2041.66	3.76
2041.99	3.8
2042.32	4.08
2042.65	4.2
2042.98	4.04
2043.31	4.12
2043.63	3.64
2043.96	2.84
2044.29	2.64
2044.62	1.8
2044.95	1.32
2045.28	0.88
2045.6	1.04
2045.93	1.04
2046.26	1.48
2046.59	1.76
2046.92	2.32
2047.24	2.56
2047.57	2.6
2047.9	3.12
2048.23	2.88
2048.56	2.56
2048.88	2.32
2049.21	2.16
2049.54	1.6
2049.87	1.6
2050.2	1.72
2050.52	2.12
2050.85	2.2
2051.18	1.92
2051.51	2.12
2051.83	1.92
2052.16	1.16
2052.49	0.92
2052.82	1.2
2053.15	1.08
2053.47	0.92
2053.8	1.24
2054.13	1.8
2054.46	1.76
2054.78	1.68
2055.11	1.76
2055.44	1.72
2055.77	1.28
2056.09	1.28
2056.42	1.76
2056.75	2.24
2057.08	2.32
2057.4	2.64
2057.73	2.24
2058.06	2.04
2058.38	1.4
2058.71	1.36
2059.04	1.32
2059.37	1.24
2059.69	1.4
2060.02	1.44
2060.35	1.36
2060.67	1.44
2061	2
2061.33	1.36
2061.66	1.52
2061.98	1.76
2062.31	1.36
2062.64	0.96
2062.96	1.56
2063.29	1.64
2063.62	1.36
2063.94	1.68
2064.27	1.44
2064.6	0.32
2064.92	0.08
2065.25	0.04
2065.58	0.08
2065.91	0.04
2066.23	0.72
2066.56	0.8
2066.89	0.76
2067.21	0.36
2067.54	1.08
2067.87	1.64
2068.19	2
2068.52	2.36
2068.84	2.6
2069.17	1.84
2069.5	1.24
2069.82	0.84
2070.15	0.36
2070.48	0.2
2070.8	0.68
2071.13	0.68
2071.46	0.84
2071.78	1.04
2072.11	0.92
2072.43	0.64
2072.76	1.2
2073.09	1
2073.41	0.92
2073.74	1.32
2074.07	1.72
2074.39	1.52
2074.72	1.96
2075.04	2.76
2075.37	2.4
2075.7	1.92
2076.02	1.72
2076.35	2.48
2076.67	1.68
2077	1.76
2077.33	2.2
2077.65	2.04
2077.98	1.2
2078.3	1.6
2078.63	1.48
2078.95	1.08
2079.28	1.68
2079.61	1.28
2079.93	1.12
2080.26	1.44
2080.58	1.64
2080.91	1.48
2081.23	1.8
2081.56	1.6
2081.89	1.6
2082.21	1.28
2082.54	0.84
2082.86	1.36
2083.19	1.52
2083.51	1.44
2083.84	1.44
2084.16	1.6
2084.49	1.04
2084.81	1.08
2085.14	0.96
2085.46	1.24
2085.79	1.36
2086.12	1.12
2086.44	0.88
2086.77	0.76
2087.09	0.76
2087.42	0.56
2087.74	0.6
2088.07	0.8
2088.39	0.96
2088.72	1.24
2089.04	1.52
2089.37	1.8
2089.69	1.68
2090.02	1.56
2090.34	0.84
2090.67	1.08
2090.99	-1.48
2091.32	-1.48
2091.64	-1.4
2091.97	-0.72
2092.29	-0.8
2092.62	1.64
2092.94	2.08
2093.26	1.96
2093.59	1.48
2093.91	0.08
2094.24	-0.08
2094.56	-0.72
2094.89	-0.52
2095.21	-0.52
2095.54	0.56
2095.86	0.6
2096.19	0.6
2096.51	0.4
2096.84	0.52
2097.16	0.44
2097.48	0.84
2097.81	0.96
2098.13	1.28
2098.46	0.76
2098.78	0.76
2099.11	0.24
2099.43	0.12
2099.75	0.28
2100.08	1.2
2100.4	1.12
2100.73	1.28
2101.05	1.28
2101.38	0.84
2101.7	0.4
2102.02	0.4
2102.35	0.84
2102.67	1.16
2103	1.44
2103.32	1.4
2103.64	1.6
2103.97	1.24
2104.29	1.56
2104.62	2.04
2104.94	2.28
2105.26	1.76
2105.59	1.68
2105.91	1.36
2106.23	0.96
2106.56	0.6
2106.88	0.92
2107.21	0.8
2107.53	0.68
2107.85	0.48
2108.18	0.52
2108.5	1.16
2108.82	1.36
2109.15	1.16
2109.47	1.12
2109.79	1.28
2110.12	0.72
2110.44	0.64
2110.76	0.96
2111.09	0.84
2111.41	1.12
2111.73	1.08
2112.06	1.32
2112.38	1.16
2112.7	0.68
2113.03	0.28
2113.35	0.24
2113.67	-0.04
2114	-0.04
2114.32	0.4
2114.64	0.6
2114.97	0.96
2115.29	1.36
2115.61	1.48
2115.94	1.76
2116.26	1.48
2116.58	1.08
2116.91	-0.36
2117.23	-0.64
2117.55	-0.56
2117.87	-0.32
2118.2	0.04
2118.52	1.12
2118.84	1.12
2119.17	0.88
2119.49	0.8
2119.81	0.92
2120.13	1.48
2120.46	1.6
2120.78	0.6
2121.1	0.6
2121.42	0.64
2121.75	0.04
2122.07	0.12
2122.39	1.16
2122.72	1.08
2123.04	0.68
2123.36	0.6
2123.68	0.68
2124.01	0.52
2124.33	0.44
2124.65	0.32
2124.97	0.28
2125.29	0.16
2125.62	0.16
2125.94	0.16
2126.26	0.32
2126.58	0.36
2126.91	-0.4
2127.23	-0.24
2127.55	-0.2
2127.87	-0.36
2128.2	-0.32
2128.52	0.6
2128.84	0.56
2129.16	0.68
2129.48	0.72
2129.81	0.68
2130.13	0.6
2130.45	0.48
2130.77	1.12
2131.09	1.4
2131.42	1.68
2131.74	2.16
2132.06	2.24
2132.38	1.72
2132.7	1.88
2133.02	1.96
2133.35	1.4
2133.67	1.32
2133.99	1.08
2134.31	0.2
2134.63	0.36
2134.96	0.64
2135.28	0.84
2135.6	1
2135.92	1.4
2136.24	0.84
2136.56	0.44
2136.88	0.24
2137.21	0.36
2137.53	0.36
2137.85	0.36
2138.17	-0.16
2138.49	6.99446e-17
2138.81	-0.12
2139.13	-0.12
2139.46	-0.12
2139.78	0.6
2140.1	0.44
2140.42	0.36
2140.74	0.36
2141.06	0.76
2141.38	0.52
2141.7	0.52
2142.03	0.4
2142.35	0.6
2142.67	0.32
2142.99	0.64
2143.31	0.64
2143.63	0.76
2143.95	0.56
2144.27	0.64
2144.59	0.44
2144.91	0.4
2145.24	0.32
2145.56	0.36
2145.88	0.2
2146.2	0.32
2146.52	0.36
2146.84	0.36
2147.16	0.96
2147.48	1.04
2147.8	0.8
2148.12	0.84
2148.44	0.84
2148.76	0.2
2149.08	0.08
2149.41	0.08
2149.73	0.24
2150.05	0.32
2150.37	0.32
2150.69	0.44
2151.01	0.44
2151.33	0.24
2151.65	0.28
2151.97	0.28
2152.29	0.32
2152.61	0.24
2152.93	0.24
2153.25	0.28
2153.57	0.28
2153.89	0.6
2154.21	0.6
2154.53	0.64
2154.85	0.56
2155.17	0.8
2155.49	0.44
2155.81	0.52
2156.13	0.56
2156.45	0.44
2156.77	0.36
2157.09	0.4
2157.41	0.4
2157.73	0.32
2158.05	0.8
2158.37	0.84
2158.69	0.88
2159.01	0.88
2159.33	0.92
2159.65	0.44
2159.97	0.32
2160.29	0.16
2160.61	0.24
2160.93	0.2
2161.25	0.36
2161.57	0.48
2161.89	0.48
2162.21	0.4
2162.53	0.44
2162.85	-0.32
2163.17	-0.48
2163.49	-0.48
2163.81	-0.48
2164.13	-0.32
2164.45	2.88669e-17
2164.77	0.08
2165.08	0.12
2165.4	0.16
2165.72	0.32
2166.04	0.6
2166.36	0.92
2166.68	0.92
2167	0.88
2167.32	0.6
2167.64	0.6
2167.96	0.16
2168.28	0.08
2168.6	0.36
2168.92	0.28
2169.24	0.32
2169.55	0.4
2169.87	0.6
2170.19	0.64
2170.51	0.68
2170.83	0.64
2171.15	0.64
2171.47	0.76
2171.79	0.44
2172.11	0.4
2172.43	0.4
2172.74	0.8
2173.06	0.64
2173.38	0.76
2173.7	0.8
2174.02	0.88
2174.34	0.4
2174.66	0.24
2174.98	0.24
2175.29	0.2
2175.61	0.28
2175.93	0.32
2176.25	0.48
2176.57	0.44
2176.89	0.52
2177.21	0.4
2177.52	0.44
2177.84	0.56
2178.16	0.52
2178.48	0.6
2178.8	0.6
2179.12	0.52
2179.43	0.24
2179.75	-0.8
2180.07	-0.96
2180.39	-0.56
2180.71	-0.56
2181.03	-0.32
2181.34	0.72
2181.66	0.72
2181.98	0.56
2182.3	0.76
2182.62	0.6
2182.93	0.16
2183.25	0.24
2183.57	0.04
2183.89	-0.16
2184.21	-0.12
2184.52	0.4
2184.84	0.64
2185.16	0.56
2185.48	0.68
2185.8	0.68
2186.11	0.72
2186.43	0.4
2186.75	0.4
2187.07	0.52
2187.39	-0.4
2187.7	-0.56
2188.02	-1.16
2188.34	-0.84
2188.66	-0.56
2188.97	0.6
2189.29	0.76
2189.61	1.36
2189.93	1.08
2190.24	0.84
2190.56	0.48
2190.88	0.6
2191.2	0.72
2191.51	1
2191.83	1.04
2192.15	1.2
2192.47	0.92
2192.78	1
2193.1	0.84
2193.42	0.52
2193.74	0.68
2194.05	0.68
2194.37	0.84
2194.69	0.68
2195	0.28
2195.32	-0.04
2195.64	0.2
2195.96	-1.33221e-17
2196.27	-1.33221e-17
2196.59	0
2196.91	0.04
2197.22	2.77556e-17
2197.54	0.24
2197.86	0.24
2198.18	1
2198.49	0.96
2198.81	0.76
2199.13	0.36
2199.44	0.68
2199.76	0.4
2200.08	0.52
2200.39	0.68
2200.71	0.68
2201.03	0.52
2201.34	0.44
2201.66	0.32
2201.98	0.16
2202.29	0.24
2202.61	0.28
2202.93	0.28
2203.24	0.28
2203.56	0.52
2203.88	0.44
2204.19	0.28
2204.51	0.28
2204.83	0.28
2205.14	0.32
2205.46	0.52
2205.78	0.48
2206.09	0.48
2206.41	0.32
2206.72	-0.16
2207.04	-0.28
2207.36	-0.56
2207.67	-0.44
2207.99	-0.04
2208.31	0.16
2208.62	0.24
2208.94	0.76
2209.25	0.64
2209.57	0.4
2209.89	0.4
2210.2	0.24
2210.52	0.08
2210.83	0.08
2211.15	0.48
2211.47	0.52
2211.78	0.56
2212.1	0.12
2212.41	0.12
2212.73	-2.88669e-17
2213.05	-0.04
2213.36	-0.08
2213.68	0.28
2213.99	0.32
2214.31	0.12
2214.62	0.12
2214.94	0.12
2215.26	0.16
2215.57	0.12
2215.89	0.08
2216.2	0.12
2216.52	0.76
2216.83	0.72
2217.15	0.72
2217.46	1
2217.78	0.96
2218.1	0.36
2218.41	0.6
2218.73	0.6
2219.04	0.28
2219.36	0.6
2219.67	0.6
2219.99	0.44
2220.3	0.56
2220.62	0.56
2220.93	0.24
2221.25	0.24
2221.56	0.16
2221.88	0.6
2222.19	0.6
2222.51	0.72
2222.82	-0.72
2223.14	-0.72
2223.45	-1.08
2223.77	-0.52
2224.08	-0.64
2224.4	0.76
2224.71	1.08
2225.03	1.64
2225.34	1.32
2225.66	-0.04
2225.97	-0.04
2226.29	-0.36
2226.6	-1.12
2226.92	-1.24
2227.23	0.12
2227.55	0.12
2227.86	0.12
2228.18	0.12
2228.49	0.12
2228.81	0.24
2229.12	0.64
2229.44	0.64
2229.75	0.72
2230.07	0.6
2230.38	0.48
2230.69	0.08
2231.01	0.08
2231.32	0.08
2231.64	0.08
2231.95	0.12
2232.27	0.2
2232.58	0.36
2232.9	0.48
2233.21	0.48
2233.52	0.56
2233.84	0.48
2234.15	0.32
2234.47	0.24
2234.78	0.24
2235.1	0.48
2235.41	0.6
2235.72	0.64
2236.04	0.52
2236.35	0.56
2236.67	-0.4
2236.98	-0.48
2237.29	-0.52
2237.61	-0.52
2237.92	-0.32
2238.24	0.28
2238.55	0.72
2238.86	0.72
2239.18	0.84
2239.49	0.04
2239.8	0.04
2240.12	-0.28
2240.43	-0.2
2240.75	0.16
2241.06	0.72
2241.37	0.8
2241.69	0.68
2242	0.64
2242.31	0.32
2242.63	0.32
2242.94	0.44
2243.26	-0.2
2243.57	-0.24
2243.88	-0.4
2244.2	-0.4
2244.51	-0.6
2244.82	0.12
2245.14	0.12
2245.45	0.24
2245.76	0.48
2246.08	0.52
2246.39	0.4
2246.7	0.48
2247.02	0.4
2247.33	0.48
2247.64	0.44
2247.96	0.6
2248.27	0.52
2248.58	-0.28
2248.9	-0.56
2249.21	-0.56
2249.52	-0.64
2249.83	-0.64
2250.15	0.24
2250.46	0.48
2250.77	1.04
2251.09	0.96
2251.4	1
2251.71	0.88
2252.03	0.6
2252.34	0.12
2252.65	0.12
2252.96	0.24
2253.28	0.52
2253.59	0.52
2253.9	0.44
2254.21	0.6
2254.53	0.48
2254.84	0.12
2255.15	0.28
2255.47	0.28
2255.78	0.24
2256.09	0.2
2256.4	0.28
2256.72	0.12
2257.03	0.12
2257.34	0
2257.65	0
2257.97	0.16
2258.28	0.16
2258.59	0.16
2258.9	0.16
2259.22	0.24
2259.53	0.08
2259.84	0.12
2260.15	0.12
2260.46	0.24
2260.78	0.24
2261.09	0.28
2261.4	0.44
2261.71	0.44
2262.03	0.48
2262.34	0.4
2262.65	0.36
2262.96	0.16
2263.27	0.28
2263.59	0.28
2263.9	0.44
2264.21	0.72
2264.52	0.8
2264.83	1.08
2265.15	1.16
2265.46	1
2265.77	0.72
2266.08	0.64
2266.39	0.24
2266.7	0.08
2267.02	0.08
2267.33	-0.32
2267.64	-0.32
2267.95	-0.32
2268.26	-0.32
2268.57	-0.12
2268.89	0.48
2269.2	0.52
2269.51	0.64
2269.82	0.56
2270.13	0.48
2270.44	0.28
2270.76	-0.16
2271.07	-0.28
2271.38	-0.64
2271.69	-0.68
2272	-0.52
2272.31	-0.2
2272.62	-0.92
2272.93	-0.36
2273.25	-0.24
2273.56	-0.4
2273.87	-0.2
2274.18	0.6
2274.49	0.8
2274.8	0.6
2275.11	1.12
2275.42	1.12
2275.74	1.16
2276.05	0.76
2276.36	0.76
2276.67	0.32
2276.98	0.2
2277.29	0.44
2277.6	0.72
2277.91	0.76
2278.22	0.56
2278.53	0.56
2278.85	0.2
2279.16	-1.08
2279.47	-1.12
2279.78	-0.76
2280.09	-0.76
2280.4	-0.72
2280.71	0.32
2281.02	0.4
2281.33	0.68
2281.64	0.68
2281.95	0.64
2282.26	0.6
2282.57	0.52
2282.88	0.2
2283.19	0.24
2283.5	0.28
2283.82	0.36
2284.13	0.36
2284.44	0.16
2284.75	-0.32
2285.06	-0.32
2285.37	-0.2
2285.68	0.04
2285.99	0.2
2286.3	0.64
2286.61	0.6
2286.92	0.72
2287.23	0.56
2287.54	0.44
2287.85	0.72
2288.16	0.76
2288.47	0.44
2288.78	0.52
2289.09	0.48
2289.4	0.24
2289.71	0.2
2290.02	0.44
2290.33	0.44
2290.64	0.88
2290.95	0.68
2291.26	1
2291.57	0.76
2291.88	0.2
2292.19	-0.2
2292.5	-0.04
2292.81	-0.36
2293.12	-0.36
2293.43	0.04
2293.74	0
2294.05	0
2294.36	0
2294.67	0
2294.98	0
2295.29	0
2295.6	0
2295.91	0
2296.21	0
2296.52	0
2296.83	0
2297.14	0
2297.45	0
2297.76	0
2298.07	0
2298.38	0
2298.69	0
2299	0
2299.31	0
2299.62	0
2299.93	0
2300.24	0
2300.55	0
2300.85	0
2301.16	0
2301.47	0
2301.78	0
2302.09	0
2302.4	0
2302.71	0
2303.02	0
2303.33	0
2303.64	0
2303.94	0
2304.25	0
2304.56	0
2304.87	0
2305.18	0
2305.49	0
2305.8	0
2306.11	0
2306.42	0
2306.72	0
2307.03	0
2307.34	0
2307.65	0
2307.96	0
2308.27	0
2308.58	0
2308.88	0
2309.19	0
2309.5	0
2309.81	0
2310.12	0
2310.43	0
2310.74	0
2311.04	0
2311.35	0
2311.66	0
2311.97	0
2312.28	0
2312.59	0
2312.89	0
2313.2	0
2313.51	0
2313.82	0
2314.13	0
2314.43	0
2314.74	0
2315.05	0
2315.36	0
2315.67	0
2315.97	0
2316.28	0
2316.59	0
2316.9	0
2317.21	0
2317.51	0
2317.82	0
2318.13	0
2318.44	0
2318.75	0
2319.05	0
2319.36	0
2319.67	0
2319.98	0
2320.28	0
2320.59	0
2320.9	0
2321.21	0
2321.51	0
2321.82	0
2322.13	0
2322.44	0
2322.74	0
2323.05	0
2323.36	0
2323.67	0
2323.97	0
2324.28	0
2324.59	0
2324.9	0
2325.2	0
2325.51	0
2325.82	0
2326.13	0
2326.43	0
2326.74	0
2327.05	0
2327.35	0
2327.66	0
2327.97	0
2328.27	0
2328.58	0
2328.89	0
2329.2	0
2329.5	0
2329.81	0
2330.12	0
2330.42	0
2330.73	0
2331.04	0
2331.34	0
2331.65	0
2331.96	0
2332.26	0
2332.57	0
2332.88	0
2333.18	0
2333.49	0
2333.8	0
2334.1	0
2334.41	0
2334.72	0
2335.02	0
2335.33	0
2335.64	0
2335.94	0
2336.25	0
2336.56	0
2336.86	0
2337.17	0
2337.48	0
2337.78	0
2338.09	0
2338.39	0
2338.7	0
2339.01	0
2339.31	0
2339.62	0
2339.93	0
2340.23	0
2340.54	0
2340.84	0
2341.15	0
2341.46	0
2341.76	0
2342.07	0
2342.37	0
2342.68	0
2342.99	0
2343.29	0
2343.6	0
2343.9	0
2344.21	0
2344.51	0
2344.82	0
2345.13	0
2345.43	0
2345.74	0
2346.04	0
2346.35	0
2346.65	0
2346.96	0
2347.27	0
2347.57	0
2347.88	0
2348.18	0
2348.49	0
2348.79	0
2349.1	0
2349.4	0
2349.71	0
2350.01	0
2350.32	0
2350.63	0
2350.93	0
2351.24	0
2351.54	0
2351.85	0
2352.15	0
2352.46	0
2352.76	0
2353.07	0
2353.37	0
2353.68	0
2353.98	0
2354.29	0
2354.59	0
2354.9	0
2355.2	0
2355.51	0
2355.81	0
2356.12	0
2356.42	0
2356.73	0
2357.03	0
2357.34	0
2357.64	0
2357.95	0
2358.25	0
2358.55	0
2358.86	0
2359.16	0
2359.47	0
2359.77	0
2360.08	0
2360.38	0
2360.69	0
2360.99	0
2361.3	0
2361.6	0
2361.9	0
2362.21	0
2362.51	0
2362.82	0
2363.12	0
2363.43	0
2363.73	0
2364.04	0
2364.34	0
2364.64	0
2364.95	0
2365.25	0
2365.56	0
2365.86	0
2366.16	0
2366.47	0
2366.77	0
2367.08	0
2367.38	0
2367.68	0
2367.99	0
2368.29	0
2368.6	0
2368.9	0
2369.2	0
2369.51	0
2369.81	0
2370.12	0
2370.42	0
2370.72	0
2371.03	0
2371.33	0
2371.63	0
2371.94	0
2372.24	0
2372.55	0
2372.85	0
2373.15	0
2373.46	0
2373.76	0
2374.06	0
2374.37	0
2374.67	0
2374.97	0
2375.28	0
2375.58	0
2375.88	0
2376.19	0
2376.49	0
2376.79	0
2377.1	0
2377.4	0
2377.7	0
2378.01	0
2378.31	0
2378.61	0
2378.92	0
2379.22	0
2379.52	0
2379.82	0
2380.13	0
2380.43	0
2380.73	0
2381.04	0
2381.34	0
2381.64	0
2381.95	0
2382.25	0
2382.55	0
2382.85	0
2383.16	0
2383.46	0
2383.76	0
2384.06	0
2384.37	0
2384.67	0
2384.97	0
2385.28	0
2385.58	0
2385.88	0
2386.18	0
2386.49	0
2386.79	0
2387.09	0
2387.39	0
2387.69	0
2388	0
2388.3	0
2388.6	0
2388.9	0
2389.21	0
2389.51	0
2389.81	0
2390.11	0
2390.42	0
2390.72	0
2391.02	0
2391.32	0
2391.62	0
2391.93	0
2392.23	0
2392.53	0
2392.83	0
2393.13	0
2393.44	0
2393.74	0
2394.04	0
2394.34	0
2394.64	0
2394.95	0
2395.25	0
2395.55	0
2395.85	0
2396.15	0
2396.45	0
2396.76	0
2397.06	0
2397.36	0
2397.66	0
2397.96	0
2398.26	0
2398.57	0
2398.87	0
2399.17	0
2399.47	0
2399.77	0
2400.07	0
2400.37	0
2400.68	0
2400.98	0
2401.28	0
2401.58	0
2401.88	0
2402.18	0
2402.48	0
2402.79	0
2403.09	0
2403.39	0
2403.69	0
2403.99	0
2404.29	0
2404.59	0
2404.89	0
2405.19	0
2405.5	0
2405.8	0
2406.1	0
2406.4	0
2406.7	0
2407	0
2407.3	0
2407.6	0
2407.9	0
2408.2	0
2408.5	0
2408.8	0
2409.11	0
2409.41	0
2409.71	0
2410.01	0
2410.31	0
2410.61	0
2410.91	0
2411.21	0
2411.51	0
2411.81	0
2412.11	0
2412.41	0
2412.71	0
2413.01	0
2413.31	0
2413.61	0
2413.91	0
2414.21	0
2414.51	0
2414.81	0
2415.12	0
2415.42	0
2415.72	0
2416.02	0
2416.32	0
2416.62	0
2416.92	0
2417.22	0
2417.52	0
2417.82	0
2418.12	0
2418.42	0
2418.72	0
2419.02	0
2419.32	0
2419.62	0
2419.92	0
2420.22	0
2420.52	0
2420.82	0
2421.12	0
2421.42	0
2421.71	0
2422.01	0
2422.31	0
2422.61	0
2422.91	0
2423.21	0
2423.51	0
2423.81	0
2424.11	0
2424.41	0
2424.71	0
2425.01	0
2425.31	0
2425.61	0
2425.91	0
2426.21	0
2426.51	0
2426.81	0
2427.11	0
2427.41	0
2427.7	0
2428	0
2428.3	0
2428.6	0
2428.9	0
2429.2	0
2429.5	0
2429.8	0
2430.1	0
2430.4	0
2430.7	0
2430.99	0
2431.29	0
2431.59	0
2431.89	0
2432.19	0
2432.49	0
2432.79	0
2433.09	0
2433.39	0
2433.68	0
2433.98	0
2434.28	0
2434.58	0
2434.88	0
2435.18	0
2435.48	0
2435.78	0
2436.07	0
2436.37	0
2436.67	0
2436.97	0
2437.27	0
2437.57	0
2437.86	0
2438.16	0
2438.46	0
2438.76	0
2439.06	0
2439.36	0
2439.66	0
2439.95	0
2440.25	0
2440.55	0
2440.85	0
2441.15	0
2441.44	0
2441.74	0
2442.04	0
2442.34	0
2442.64	0
2442.93	0
2443.23	0
2443.53	0
2443.83	0
2444.13	0
2444.42	0
2444.72	0
2445.02	0
2445.32	0
2445.62	0
2445.91	0
2446.21	0
2446.51	0
2446.81	0
2447.1	0
2447.4	0
2447.7	0
2448	0
2448.3	0
2448.59	0
2448.89	0
2449.19	0
2449.49	0
2449.78	0
2450.08	0
2450.38	0
2450.68	0
2450.97	0
2451.27	0
2451.57	0
2451.87	0
2452.16	0
2452.46	0
2452.76	0
2453.05	0
2453.35	0
2453.65	0
2453.95	0
2454.24	0
2454.54	0
2454.84	0
2455.13	0
2455.43	0
2455.73	0
2456.03	0
2456.32	0
2456.62	0
2456.92	0
2457.21	0
2457.51	0
2457.81	0
2458.1	0
2458.4	0
2458.7	0
2458.99	0
2459.29	0
2459.59	0
2459.88	0
2460.18	0
2460.48	0
2460.77	0
2461.07	0
2461.37	0
2461.66	0
2461.96	0
2462.26	0
2462.55	0
2462.85	0
2463.15	0
2463.44	0
2463.74	0
2464.04	0
2464.33	0
2464.63	0
2464.92	0
2465.22	0
2465.52	0
2465.81	0
2466.11	0
2466.41	0
2466.7	0
2467	0
2467.29	0
2467.59	0
2467.89	0
2468.18	0
2468.48	0
2468.77	0
2469.07	0
2469.37	0
2469.66	0
2469.96	0
2470.25	0
2470.55	0
2470.84	0
2471.14	0
2471.44	0
2471.73	0
2472.03	0
2472.32	0
2472.62	0
2472.91	0
2473.21	0
2473.51	0
2473.8	0
2474.1	0
2474.39	0
2474.69	0
2474.98	0
2475.28	0
2475.57	0
2475.87	0
2476.17	0
2476.46	0
2476.76	0
2477.05	0
2477.35	0
2477.64	0
2477.94	0
2478.23	0
2478.53	0
2478.82	0
2479.12	0
2479.41	0
2479.71	0
2480	0
2480.3	0
2480.59	0
2480.89	0
2481.18	0
2481.48	0
2481.77	0
2482.07	0
2482.36	0
2482.66	0
2482.95	0
2483.25	0
2483.54	0
2483.84	0
2484.13	0
2484.43	0
2484.72	0
2485.02	0
2485.31	0
2485.6	0
2485.9	0
2486.19	0
2486.49	0
2486.78	0
2487.08	0
2487.37	0
2487.67	0
2487.96	0
2488.26	0
2488.55	0
2488.84	0
2489.14	0
2489.43	0
2489.73	0
2490.02	0
2490.32	0
2490.61	0
2490.9	0
2491.2	0
2491.49	0
2491.79	0
2492.08	0
2492.37	0
2492.67	0
2492.96	0
2493.26	0
2493.55	0
2493.84	0
2494.14	0
2494.43	0
2494.73	0
2495.02	0
2495.31	0
2495.61	0
2495.9	0
2496.2	0
2496.49	0
2496.78	0
2497.08	0
2497.37	0
2497.66	0
2497.96	0
2498.25	0
2498.54	0
2498.84	0
2499.13	0
2499.43	0
2499.72	0
2500.01	0
2500.31	0
2500.6	0
2500.89	0
2501.19	0
2501.48	0
2501.77	0
2502.07	0
2502.36	0
2502.65	0
2502.95	0
2503.24	0
2503.53	0
2503.82	0
2504.12	0
2504.41	0
2504.7	0
2505	0
2505.29	0
2505.58	0
2505.88	0
2506.17	0
2506.46	0
2506.76	0
2507.05	0
2507.34	0
2507.63	0
2507.93	0
2508.22	0
2508.51	0
2508.8	0
2509.1	0
2509.39	0
2509.68	0
2509.98	0
2510.27	0
2510.56	0
2510.85	0
2511.15	0
2511.44	0
2511.73	0
2512.02	0
2512.32	0
2512.61	0
2512.9	0
2513.19	0
2513.49	0
2513.78	0
2514.07	0
2514.36	0
2514.65	0
2514.95	0
2515.24	0
2515.53	0
2515.82	0
2516.12	0
2516.41	0
2516.7	0
2516.99	0
2517.28	0
2517.58	0
2517.87	0
2518.16	0
2518.45	0
2518.74	0
2519.04	0
2519.33	0
2519.62	0
2519.91	0
2520.2	0
2520.5	0
2520.79	0
2521.08	0
2521.37	0
2521.66	0
2521.95	0
2522.25	0
2522.54	0
2522.83	0
2523.12	0
2523.41	0
2523.7	0
2523.99	0
2524.29	0
2524.58	0
2524.87	0
2525.16	0
2525.45	0
2525.74	0
2526.03	0
2526.33	0
2526.62	0
2526.91	0
2527.2	0
2527.49	0
2527.78	0
2528.07	0
2528.36	0
2528.66	0
2528.95	0
2529.24	0
2529.53	0
2529.82	0
2530.11	0
2530.4	0
2530.69	0
2530.98	0
2531.27	0
2531.57	0
2531.86	0
2532.15	0
2532.44	0
2532.73	0
2533.02	0
2533.31	0
2533.6	0
2533.89	0
2534.18	0
2534.47	0
2534.76	0
2535.05	0
2535.35	0
2535.64	0
2535.93	0
2536.22	0
2536.51	0
2536.8	0
2537.09	0
2537.38	0
2537.67	0
2537.96	0
2538.25	0
2538.54	0
2538.83	0
2539.12	0
2539.41	0
2539.7	0
2539.99	0
2540.28	0
2540.57	0
2540.86	0
2541.15	0
2541.44	0
2541.73	0
2542.02	0
2542.31	0
2542.6	0
2542.89	0
2543.18	0
2543.47	0
2543.76	0
2544.05	0
2544.34	0
2544.63	0
2544.92	0
2545.21	0
2545.5	0
2545.79	0
2546.08	0
2546.37	0
2546.66	0
2546.95	0
2547.24	0
2547.53	0
2547.82	0
2548.11	0
2548.4	0
2548.69	0
2548.98	0
2549.27	0
2549.55	0
2549.84	0
2550.13	0
2550.42	0
2550.71	0
2551	0
2551.29	0
2551.58	0
2551.87	0
2552.16	0
2552.45	0
2552.74	0
2553.03	0
2553.31	0
2553.6	0
2553.89	0
2554.18	0
2554.47	0
2554.76	0
2555.05	0
2555.34	0
2555.63	0
2555.92	0
2556.2	0
2556.49	0
2556.78	0
2557.07	0
2557.36	0
2557.65	0
2557.94	0
2558.23	0
2558.51	0
2558.8	0
2559.09	0
2559.38	0
2559.67	0
2559.96	0
2560.25	0
2560.53	0
2560.82	0
2561.11	0
2561.4	0
2561.69	0
2561.98	0
2562.27	0
2562.55	0
2562.84	0
2563.13	0
2563.42	0
2563.71	0
2564	0
2564.28	0
2564.57	0
2564.86	0
2565.15	0
2565.44	0
2565.72	0
2566.01	0
2566.3	0
2566.59	0
2566.88	0
2567.16	0
2567.45	0
2567.74	0
2568.03	0
2568.32	0
2568.6	0
2568.89	0
2569.18	0
2569.47	0
2569.75	0

