Source: Spectrum Viewer

Chart: Pulse Spectrum

Series: 
Wavelength (nm)	S (a.u.)
1179.9	0
1180.29	0
1180.68	0
1181.06	0
1181.45	0
1181.83	0
1182.22	0
1182.6	0
1182.99	0
1183.38	0
1183.76	0
1184.15	0
1184.53	0
1184.92	0
1185.3	0
1185.69	0
1186.07	0
1186.46	0
1186.85	0
1187.23	0
1187.62	0
1188	0
1188.39	0
1188.77	0
1189.16	0
1189.54	0
1189.93	0
1190.31	0
1190.7	0
1191.08	0
1191.47	0
1191.85	0
1192.24	0
1192.62	0
1193.01	0
1193.39	0
1193.78	0
1194.16	0
1194.55	0
1194.93	0
1195.32	0
1195.7	0
1196.09	0
1196.47	0
1196.86	0
1197.24	0
1197.63	0
1198.01	0
1198.4	0
1198.78	0
1199.16	0
1199.55	0
1199.93	0
1200.32	0
1200.7	0
1201.09	0
1201.47	0
1201.86	0
1202.24	0
1202.63	0
1203.01	0
1203.39	0
1203.78	0
1204.16	0
1204.55	0
1204.93	0
1205.32	0
1205.7	0
1206.08	0
1206.47	0
1206.85	0
1207.24	0
1207.62	0
1208	0
1208.39	0
1208.77	0
1209.16	0
1209.54	0
1209.92	0
1210.31	0
1210.69	0
1211.08	0
1211.46	0
1211.84	0
1212.23	0
1212.61	0
1213	0
1213.38	0
1213.76	0
1214.15	0
1214.53	0
1214.91	0
1215.3	0
1215.68	0
1216.06	0
1216.45	0
1216.83	0
1217.22	0
1217.6	0
1217.98	0
1218.37	0
1218.75	0
1219.13	0
1219.52	0
1219.9	0
1220.28	0
1220.67	0
1221.05	0
1221.43	0
1221.82	0
1222.2	0
1222.58	0
1222.97	0
1223.35	0
1223.73	0
1224.11	0
1224.5	0
1224.88	0
1225.26	0
1225.65	0
1226.03	0
1226.41	0
1226.8	0
1227.18	0
1227.56	0
1227.94	0
1228.33	0
1228.71	0
1229.09	0
1229.47	0
1229.86	0
1230.24	0
1230.62	0
1231.01	0
1231.39	0
1231.77	0
1232.15	0
1232.54	0
1232.92	0
1233.3	0
1233.68	0
1234.07	0
1234.45	0
1234.83	0
1235.21	0
1235.6	0
1235.98	0
1236.36	0
1236.74	0
1237.12	0
1237.51	0
1237.89	0
1238.27	0
1238.65	0
1239.04	0
1239.42	0
1239.8	0
1240.18	0
1240.56	0
1240.95	0
1241.33	0
1241.71	0
1242.09	0
1242.47	0
1242.86	0
1243.24	0
1243.62	0
1244	0
1244.38	0
1244.77	0
1245.15	0
1245.53	0
1245.91	0
1246.29	0
1246.67	0
1247.06	0
1247.44	0
1247.82	0
1248.2	0
1248.58	0
1248.96	0
1249.34	0
1249.73	0
1250.11	0
1250.49	0
1250.87	0
1251.25	0
1251.63	0
1252.01	0
1252.4	0
1252.78	0
1253.16	0
1253.54	0
1253.92	0
1254.3	0
1254.68	0
1255.06	0
1255.45	0
1255.83	0
1256.21	0
1256.59	0
1256.97	0
1257.35	0
1257.73	0
1258.11	0
1258.49	0
1258.87	0
1259.26	0
1259.64	0
1260.02	0
1260.4	0
1260.78	0
1261.16	0
1261.54	0
1261.92	0
1262.3	0
1262.68	0
1263.06	0
1263.44	0
1263.82	0
1264.21	0
1264.59	0
1264.97	0
1265.35	0
1265.73	0
1266.11	0
1266.49	0
1266.87	0
1267.25	0
1267.63	0
1268.01	0
1268.39	0
1268.77	0
1269.15	0
1269.53	0
1269.91	0
1270.29	0
1270.67	0
1271.05	0
1271.43	0
1271.81	0
1272.19	0
1272.57	0
1272.95	0
1273.33	0
1273.71	0
1274.09	0
1274.47	0
1274.85	0
1275.23	0
1275.61	0
1275.99	0
1276.37	0
1276.75	0
1277.13	0
1277.51	0
1277.89	0
1278.27	0
1278.65	0
1279.03	0
1279.41	0
1279.79	0
1280.17	0
1280.55	0
1280.93	0
1281.31	0
1281.69	0
1282.07	0
1282.45	0
1282.82	0
1283.2	0
1283.58	0
1283.96	0
1284.34	0
1284.72	0
1285.1	0
1285.48	0
1285.86	0
1286.24	0
1286.62	0
1287	0
1287.38	0
1287.75	0
1288.13	0
1288.51	0
1288.89	0
1289.27	0
1289.65	0
1290.03	0
1290.41	0
1290.79	0
1291.17	0
1291.54	0
1291.92	0
1292.3	0
1292.68	0
1293.06	0
1293.44	0
1293.82	0
1294.2	0
1294.57	0
1294.95	0
1295.33	0
1295.71	0
1296.09	0
1296.47	0
1296.85	0
1297.22	0
1297.6	0
1297.98	0
1298.36	0
1298.74	0
1299.12	0
1299.5	0
1299.87	0
1300.25	0
1300.63	0
1301.01	0
1301.39	0
1301.77	0
1302.14	0
1302.52	0
1302.9	0
1303.28	0
1303.66	0
1304.03	0
1304.41	0
1304.79	0
1305.17	0
1305.55	0
1305.92	0
1306.3	0
1306.68	0
1307.06	0
1307.44	0
1307.81	0
1308.19	0
1308.57	0
1308.95	0
1309.32	0
1309.7	0
1310.08	0
1310.46	0
1310.84	0
1311.21	0
1311.59	0
1311.97	0
1312.35	0
1312.72	0
1313.1	0
1313.48	0
1313.86	0
1314.23	0
1314.61	0
1314.99	0
1315.37	0
1315.74	0
1316.12	0
1316.5	0
1316.87	0
1317.25	0
1317.63	0
1318.01	0
1318.38	0
1318.76	0
1319.14	0
1319.52	0
1319.89	0
1320.27	0
1320.65	0
1321.02	0
1321.4	0
1321.78	0
1322.15	0
1322.53	0
1322.91	0
1323.29	0
1323.66	0
1324.04	0
1324.42	0
1324.79	0
1325.17	0
1325.55	0
1325.92	0
1326.3	0
1326.68	0
1327.05	0
1327.43	0
1327.81	0
1328.18	0
1328.56	0
1328.94	0
1329.31	0
1329.69	0
1330.06	0
1330.44	0
1330.82	0
1331.19	0
1331.57	0
1331.95	0
1332.32	0
1332.7	0
1333.08	0
1333.45	0
1333.83	0
1334.2	0
1334.58	0
1334.96	0
1335.33	0
1335.71	0
1336.08	0
1336.46	0
1336.84	0
1337.21	0
1337.59	0
1337.96	0
1338.34	0
1338.72	0
1339.09	0
1339.47	0
1339.84	0
1340.22	0
1340.6	0
1340.97	0
1341.35	0
1341.72	0
1342.1	0
1342.47	0
1342.85	0
1343.23	0
1343.6	0
1343.98	0
1344.35	0
1344.73	0
1345.1	0
1345.48	0
1345.85	0
1346.23	0
1346.61	0
1346.98	0
1347.36	0
1347.73	0
1348.11	0
1348.48	0
1348.86	0
1349.23	0
1349.61	0
1349.98	0
1350.36	0
1350.73	0
1351.11	0
1351.48	0
1351.86	0
1352.23	0
1352.61	0
1352.98	0
1353.36	0
1353.73	0
1354.11	0
1354.48	0
1354.86	0
1355.23	0
1355.61	0
1355.98	0
1356.36	0
1356.73	0
1357.11	0
1357.48	0
1357.86	0
1358.23	0
1358.61	0
1358.98	0
1359.35	0
1359.73	0
1360.1	0
1360.48	0
1360.85	0
1361.23	0
1361.6	0
1361.98	0
1362.35	0
1362.72	0
1363.1	0
1363.47	0
1363.85	0
1364.22	0
1364.6	0
1364.97	0
1365.34	0
1365.72	0
1366.09	0
1366.47	0
1366.84	0
1367.22	0
1367.59	0
1367.96	0
1368.34	0
1368.71	0
1369.09	0
1369.46	-0.88
1369.83	-0.88
1370.21	-0.76
1370.58	-0.76
1370.96	-0.6
1371.33	0.4
1371.7	0.48
1372.08	0.36
1372.45	0.36
1372.82	0.32
1373.2	0.24
1373.57	0.16
1373.95	0.16
1374.32	0.32
1374.69	0.4
1375.07	0.36
1375.44	0.6
1375.81	0.72
1376.19	0.56
1376.56	0.4
1376.93	0.4
1377.31	0.16
1377.68	0.08
1378.05	0.44
1378.43	0.64
1378.8	0.68
1379.17	1.08
1379.55	1.04
1379.92	0.68
1380.29	0.44
1380.67	0.4
1381.04	0
1381.41	0
1381.79	0
1382.16	0
1382.53	0.04
1382.91	-0.72
1383.28	-0.64
1383.65	-0.64
1384.03	-0.64
1384.4	-0.48
1384.77	0.48
1385.14	0.64
1385.52	0.64
1385.89	0.64
1386.26	0.52
1386.64	0.36
1387.01	0.28
1387.38	0.64
1387.75	0.84
1388.13	0.76
1388.5	0.92
1388.87	0.76
1389.25	0.44
1389.62	0.2
1389.99	0.04
1390.36	-0.16
1390.74	0.08
1391.11	0.4
1391.48	0.72
1391.85	0.92
1392.23	0.92
1392.6	0.88
1392.97	0.72
1393.34	0.44
1393.72	0.4
1394.09	0.48
1394.46	0.68
1394.83	0.48
1395.21	0.48
1395.58	0.64
1395.95	1.2
1396.32	0.8
1396.69	0.8
1397.07	1
1397.44	0.92
1397.81	0.64
1398.18	0.96
1398.55	0.96
1398.93	0.76
1399.3	0.68
1399.67	0.36
1400.04	0.08
1400.41	0.08
1400.79	0.08
1401.16	0.08
1401.53	0.16
1401.9	0.12
1402.27	0.28
1402.65	0.32
1403.02	0.32
1403.39	0.36
1403.76	-0.04
1404.13	-0.16
1404.51	-0.08
1404.88	0.04
1405.25	0.36
1405.62	0.76
1405.99	0.92
1406.36	0.8
1406.74	0.72
1407.11	0.24
1407.48	0.56
1407.85	-0.84
1408.22	-0.72
1408.59	-0.76
1408.96	-0.68
1409.34	-1
1409.71	0.2
1410.08	0.2
1410.45	0.32
1410.82	0.36
1411.19	0.4
1411.56	0.68
1411.93	0.56
1412.31	0.84
1412.68	0.72
1413.05	0.68
1413.42	0.4
1413.79	0.4
1414.16	-0.2
1414.53	0.28
1414.9	0.16
1415.27	0.16
1415.65	0.16
1416.02	0.36
1416.39	0.28
1416.76	0.4
1417.13	0.96
1417.5	0.96
1417.87	1.04
1418.24	0.84
1418.61	0.96
1418.98	0.64
1419.35	0.68
1419.73	0.72
1420.1	0.76
1420.47	0.64
1420.84	0.4
1421.21	0.72
1421.58	0.6
1421.95	0.64
1422.32	0.64
1422.69	0.64
1423.06	0.52
1423.43	0.76
1423.8	0.56
1424.17	0.56
1424.54	0.56
1424.91	0.84
1425.28	0.6
1425.65	0.8
1426.02	0.8
1426.39	1.16
1426.76	0.04
1427.14	0.16
1427.51	-0.12
1427.88	6.66107e-18
1428.25	-0.28
1428.62	0.6
1428.99	0.8
1429.36	1.16
1429.73	1.04
1430.1	1.32
1430.47	1.36
1430.84	1.72
1431.21	1.36
1431.58	1.36
1431.95	1.64
1432.32	1.12
1432.69	0.52
1433.06	0.52
1433.43	0.6
1433.8	-0.04
1434.17	0.24
1434.54	0.32
1434.91	0.68
1435.28	0.6
1435.64	0.64
1436.01	0.24
1436.38	0.12
1436.75	-0.16
1437.12	-0.16
1437.49	0.36
1437.86	0.72
1438.23	0.68
1438.6	0.6
1438.97	0.68
1439.34	0.44
1439.71	0.4
1440.08	0.44
1440.45	0.64
1440.82	0.12
1441.19	-0.16
1441.56	0.04
1441.93	0.24
1442.3	0.2
1442.67	-0.96
1443.03	-0.84
1443.4	-1.04
1443.77	-1.28
1444.14	-1.28
1444.51	0.32
1444.88	0.4
1445.25	0.84
1445.62	0.88
1445.99	0.8
1446.36	0.8
1446.73	0.56
1447.09	0.12
1447.46	0.08
1447.83	0.16
1448.2	0.28
1448.57	0.08
1448.94	0.2
1449.31	0.2
1449.68	0.04
1450.05	0.24
1450.41	0.6
1450.78	0.16
1451.15	0.16
1451.52	0.2
1451.89	6.66107e-18
1452.26	-0.16
1452.63	0.48
1453	0.6
1453.36	0.6
1453.73	0.48
1454.1	0.48
1454.47	0.44
1454.84	0.44
1455.21	0.4
1455.57	0.16
1455.94	0.36
1456.31	0.32
1456.68	0.2
1457.05	0.36
1457.42	0.8
1457.78	0.6
1458.15	1
1458.52	1.72
1458.89	1.6
1459.26	1.4
1459.63	1.4
1459.99	0.84
1460.36	0.2
1460.73	0.16
1461.1	0.2
1461.47	0.28
1461.83	0.48
1462.2	0.56
1462.57	0.6
1462.94	0.56
1463.31	0.52
1463.67	0.24
1464.04	-0.12
1464.41	1.44334e-17
1464.78	-0.56
1465.15	-0.48
1465.51	-0.4
1465.88	-0.2
1466.25	-0.2
1466.62	0.36
1466.98	0.24
1467.35	0.4
1467.72	0.4
1468.09	0.52
1468.46	0.68
1468.82	0.76
1469.19	0.52
1469.56	0.8
1469.93	0.52
1470.29	0.36
1470.66	0.52
1471.03	0.84
1471.4	0.56
1471.76	0.64
1472.13	1.2
1472.5	1.08
1472.86	0.76
1473.23	1.12
1473.6	1.36
1473.97	0.92
1474.33	0.96
1474.7	1.24
1475.07	1.16
1475.44	0.84
1475.8	0.76
1476.17	0.96
1476.54	0.84
1476.9	0.56
1477.27	0.68
1477.64	0.8
1478	0.44
1478.37	0.56
1478.74	1.08
1479.11	1.2
1479.47	1.04
1479.84	1.12
1480.21	1.24
1480.57	0.76
1480.94	0.68
1481.31	1.04
1481.67	1.04
1482.04	0.64
1482.41	0.72
1482.77	0.68
1483.14	0.32
1483.51	0.28
1483.87	0.28
1484.24	0.16
1484.61	0.16
1484.97	0.16
1485.34	0.28
1485.71	-0.56
1486.07	-0.4
1486.44	-0.4
1486.81	-0.16
1487.17	-0.32
1487.54	0.68
1487.9	0.52
1488.27	0.6
1488.64	0.16
1489	0.16
1489.37	0.08
1489.74	0.24
1490.1	0.24
1490.47	0.44
1490.83	0.64
1491.2	0.72
1491.57	1
1491.93	0.8
1492.3	0.8
1492.66	0.8
1493.03	0.64
1493.4	0.2
1493.76	0.44
1494.13	0.48
1494.49	0.6
1494.86	0.6
1495.23	0.76
1495.59	0.52
1495.96	-0.92
1496.32	-1.08
1496.69	-1
1497.06	-0.92
1497.42	-1.64
1497.79	-0.24
1498.15	-0.24
1498.52	-2.66443e-17
1498.88	-0.24
1499.25	0.6
1499.62	0.2
1499.98	0.12
1500.35	-0.16
1500.71	0.04
1501.08	0.12
1501.44	0.6
1501.81	0.68
1502.17	0.76
1502.54	0.64
1502.9	0.64
1503.27	0.64
1503.64	0.68
1504	0.56
1504.37	0.72
1504.73	0.84
1505.1	0.76
1505.46	0.72
1505.83	1.04
1506.19	0.8
1506.56	0.52
1506.92	0.52
1507.29	0.52
1507.65	0.32
1508.02	0.32
1508.38	0.4
1508.75	0.56
1509.11	0.48
1509.48	0.56
1509.84	0.56
1510.21	0.44
1510.57	0.4
1510.94	0.32
1511.3	0.12
1511.67	0.16
1512.03	0.16
1512.4	0.16
1512.76	0.72
1513.13	-0.28
1513.49	-0.48
1513.85	-0.48
1514.22	-0.52
1514.58	-1
1514.95	0.04
1515.31	0.2
1515.68	0.36
1516.04	0.4
1516.41	0.32
1516.77	0.76
1517.14	0.92
1517.5	0.84
1517.86	0.88
1518.23	1.04
1518.59	0.56
1518.96	0.52
1519.32	0.76
1519.69	0.76
1520.05	0.76
1520.41	0.76
1520.78	0.88
1521.14	0.8
1521.51	0.84
1521.87	0.68
1522.24	0.72
1522.6	0.52
1522.96	0.52
1523.33	0.64
1523.69	0.68
1524.06	0.64
1524.42	0.64
1524.78	0.68
1525.15	0.36
1525.51	0.44
1525.88	0.56
1526.24	0.52
1526.6	0.24
1526.97	0.36
1527.33	0.48
1527.69	0.76
1528.06	0.92
1528.42	1
1528.79	0.88
1529.15	-0.08
1529.51	-0.48
1529.88	-0.52
1530.24	-0.48
1530.6	-0.48
1530.97	0.44
1531.33	0.64
1531.69	0.68
1532.06	1
1532.42	1
1532.78	0.84
1533.15	0.76
1533.51	0.68
1533.87	0.28
1534.24	0.28
1534.6	0.32
1534.96	0.2
1535.33	0.48
1535.69	0.64
1536.05	0.64
1536.42	0.56
1536.78	0.56
1537.14	0.6
1537.51	0.48
1537.87	0.52
1538.23	0.52
1538.6	0.52
1538.96	0.12
1539.32	0.04
1539.68	0.28
1540.05	0.6
1540.41	0.64
1540.77	0.64
1541.14	0.64
1541.5	0.4
1541.86	0.48
1542.23	0.6
1542.59	0.6
1542.95	0.72
1543.31	0.88
1543.68	0.88
1544.04	0.92
1544.4	0.92
1544.76	1.24
1545.13	1.36
1545.49	1.08
1545.85	0.92
1546.21	1.36
1546.58	0.92
1546.94	0.6
1547.3	0.52
1547.66	0.48
1548.03	0.04
1548.39	0.08
1548.75	0.4
1549.11	0.56
1549.48	0.56
1549.84	0.64
1550.2	1.08
1550.56	1.08
1550.93	1.2
1551.29	1.44
1551.65	1.36
1552.01	0.92
1552.37	0.88
1552.74	0.56
1553.1	0.36
1553.46	0.48
1553.82	0.56
1554.18	0.32
1554.55	0.32
1554.91	0.28
1555.27	0.2
1555.63	0.28
1555.99	0.36
1556.36	0.48
1556.72	-1
1557.08	-0.64
1557.44	-0.12
1557.8	-0.2
1558.17	2.88669e-17
1558.53	1.52
1558.89	1.12
1559.25	0.64
1559.61	1.16
1559.97	0.92
1560.34	0.88
1560.7	0.92
1561.06	0.96
1561.42	0.56
1561.78	0.84
1562.14	0.44
1562.5	0.72
1562.87	0.6
1563.23	0.6
1563.59	0.48
1563.95	0.88
1564.31	0.56
1564.67	0.4
1565.03	0.32
1565.4	0.08
1565.76	0.16
1566.12	0.2
1566.48	0.2
1566.84	0.4
1567.2	0.4
1567.56	0.12
1567.92	0.08
1568.29	0.32
1568.65	0.04
1569.01	0.04
1569.37	-0.16
1569.73	0.04
1570.09	0.24
1570.45	0.64
1570.81	0.64
1571.17	1.04
1571.53	0.88
1571.89	0.44
1572.26	0.12
1572.62	0.12
1572.98	0.24
1573.34	0.2
1573.7	0.76
1574.06	0.68
1574.42	0.88
1574.78	0.68
1575.14	1.08
1575.5	0.88
1575.86	0.08
1576.22	-0.04
1576.58	0.44
1576.94	0.08
1577.3	-0.24
1577.67	0.56
1578.03	0.64
1578.39	0.36
1578.75	0.32
1579.11	0.52
1579.47	0.52
1579.83	0.36
1580.19	0.52
1580.55	0.64
1580.91	0.6
1581.27	0.6
1581.63	0.84
1581.99	0.56
1582.35	0.64
1582.71	0.44
1583.07	0.56
1583.43	0.36
1583.79	0.4
1584.15	0.2
1584.51	0.2
1584.87	0.52
1585.23	0.6
1585.59	0.56
1585.95	0.92
1586.31	0.92
1586.67	0.48
1587.03	0.44
1587.39	0.44
1587.75	0.2
1588.11	0.28
1588.47	0.56
1588.83	0.56
1589.19	0.64
1589.55	0.52
1589.91	0.44
1590.27	0.24
1590.63	0.24
1590.99	0.4
1591.35	0.64
1591.71	0.64
1592.07	0.6
1592.42	0.56
1592.78	0.56
1593.14	0.32
1593.5	0.36
1593.86	0.52
1594.22	0.6
1594.58	0.36
1594.94	0.36
1595.3	0.4
1595.66	0.68
1596.02	0.6
1596.38	1.08
1596.74	1.32
1597.1	1.48
1597.46	1
1597.81	0.96
1598.17	0.48
1598.53	0.32
1598.89	0.2
1599.25	0.64
1599.61	0.92
1599.97	1
1600.33	1.04
1600.69	1
1601.05	0.56
1601.4	0.44
1601.76	0.4
1602.12	0.32
1602.48	0.24
1602.84	0.24
1603.2	0.16
1603.56	0.4
1603.92	0.56
1604.28	0.56
1604.63	0.8
1604.99	0.8
1605.35	0.52
1605.71	0.48
1606.07	0.6
1606.43	0.36
1606.79	0.28
1607.14	1.16
1607.5	1
1607.86	0.88
1608.22	0.88
1608.58	1.08
1608.94	0.2
1609.29	0.6
1609.65	0.4
1610.01	0.52
1610.37	0.52
1610.73	0.8
1611.09	0.72
1611.44	0.92
1611.8	0.8
1612.16	0.72
1612.52	0.44
1612.88	0.12
1613.24	0.2
1613.59	0.2
1613.95	0.08
1614.31	0.08
1614.67	0.16
1615.03	0.12
1615.38	0.4
1615.74	0.56
1616.1	0.56
1616.46	0.48
1616.82	0.44
1617.17	0.48
1617.53	0.52
1617.89	0.76
1618.25	0.8
1618.6	0.8
1618.96	0.48
1619.32	0.72
1619.68	0.68
1620.04	0.84
1620.39	0.64
1620.75	0.76
1621.11	0.48
1621.47	0.28
1621.82	0.52
1622.18	0.72
1622.54	0.8
1622.9	0.64
1623.25	-0.36
1623.61	-0.8
1623.97	-0.8
1624.33	-0.76
1624.68	-0.96
1625.04	0.52
1625.4	0.6
1625.75	-5.55112e-17
1626.11	-0.24
1626.47	-0.04
1626.83	-0.28
1627.18	0.08
1627.54	0.68
1627.9	0.96
1628.26	1.12
1628.61	0.92
1628.97	0.48
1629.33	0.48
1629.68	0.68
1630.04	0.6
1630.4	-0.04
1630.75	0.12
1631.11	0.12
1631.47	-0.16
1631.83	-0.16
1632.18	0.76
1632.54	0.6
1632.9	0.8
1633.25	0.6
1633.61	0.64
1633.97	0.56
1634.32	0.56
1634.68	0.44
1635.04	0.44
1635.39	0.32
1635.75	0.2
1636.11	0.2
1636.46	0.16
1636.82	0.36
1637.18	0.52
1637.53	0.4
1637.89	0.56
1638.25	0.56
1638.6	0.48
1638.96	0.32
1639.31	0.4
1639.67	0.28
1640.03	0.36
1640.38	0.48
1640.74	0.88
1641.1	0.8
1641.45	0.96
1641.81	1.28
1642.16	1.16
1642.52	0.8
1642.88	0.92
1643.23	0.12
1643.59	-0.08
1643.95	-0.08
1644.3	-4.88501e-17
1644.66	-0.12
1645.01	0.48
1645.37	0.24
1645.73	0.52
1646.08	0.92
1646.44	1.32
1646.79	1
1647.15	1.12
1647.51	0.88
1647.86	0.36
1648.22	-0.04
1648.57	-0.28
1648.93	0.24
1649.28	0.32
1649.64	0.32
1650	0.64
1650.35	1.2
1650.71	0.64
1651.06	0.4
1651.42	0.4
1651.77	-0.12
1652.13	-0.12
1652.48	-0.16
1652.84	-0.16
1653.2	0.08
1653.55	0.32
1653.91	0.32
1654.26	0.32
1654.62	0.72
1654.97	0.52
1655.33	0.76
1655.68	0.76
1656.04	0.72
1656.39	0.68
1656.75	0.64
1657.1	0.52
1657.46	0.8
1657.81	0.8
1658.17	0.44
1658.52	0.88
1658.88	0.88
1659.23	0.68
1659.59	0.68
1659.94	1.2
1660.3	0.88
1660.65	1.08
1661.01	1.2
1661.36	1.44
1661.72	0.96
1662.07	0.88
1662.43	1.08
1662.78	1
1663.14	0.84
1663.49	1
1663.85	0.96
1664.2	0.4
1664.56	0.28
1664.91	-1.6
1665.27	-1.28
1665.62	-1.28
1665.98	-1.28
1666.33	-1.04
1666.69	0.84
1667.04	0.36
1667.39	0.36
1667.75	0.52
1668.1	0.48
1668.46	0.68
1668.81	0.64
1669.17	1.16
1669.52	1
1669.88	1.08
1670.23	1.36
1670.58	1.64
1670.94	1.52
1671.29	1.92
1671.65	1.96
1672	1.4
1672.36	1.36
1672.71	1.24
1673.06	0.84
1673.42	0.6
1673.77	0.88
1674.13	0.72
1674.48	0.52
1674.83	0.52
1675.19	0.8
1675.54	0.72
1675.9	1
1676.25	0.92
1676.6	1.24
1676.96	1.12
1677.31	1.96
1677.67	2
1678.02	2.16
1678.37	2.6
1678.73	2.96
1679.08	2.64
1679.43	2.6
1679.79	3.16
1680.14	2.68
1680.5	1.8
1680.85	2.04
1681.2	2.2
1681.56	1.72
1681.91	2.44
1682.26	4.48
1682.62	3.76
1682.97	4.44
1683.32	5.72
1683.68	5.2
1684.03	4.4
1684.38	4.8
1684.74	4.32
1685.09	5
1685.44	5.36
1685.8	5.12
1686.15	5.44
1686.5	5.64
1686.86	4.84
1687.21	6
1687.56	7.2
1687.92	7.2
1688.27	7.96
1688.62	8.28
1688.98	8.68
1689.33	8.44
1689.68	9.4
1690.03	10.16
1690.39	9.76
1690.74	8.88
1691.09	9.32
1691.45	10.2
1691.8	10.76
1692.15	10.96
1692.5	12.24
1692.86	11.68
1693.21	11.16
1693.56	9.92
1693.92	10.04
1694.27	8.76
1694.62	9.24
1694.97	9.2
1695.33	9.32
1695.68	10.84
1696.03	11.64
1696.38	11.88
1696.74	11.8
1697.09	13.04
1697.44	11.4
1697.79	11.4
1698.15	10.96
1698.5	11.96
1698.85	11.72
1699.2	12.88
1699.56	13.2
1699.91	13.92
1700.26	14.28
1700.61	13.4
1700.97	13.96
1701.32	15.12
1701.67	14.76
1702.02	14.88
1702.37	14.52
1702.73	13.68
1703.08	12.64
1703.43	12.76
1703.78	12.4
1704.13	13.12
1704.49	13.52
1704.84	13.32
1705.19	12.84
1705.54	11.44
1705.89	11.04
1706.25	10.08
1706.6	11.04
1706.95	12.28
1707.3	12.8
1707.65	13.2
1708.01	13.8
1708.36	12.64
1708.71	11.72
1709.06	11.4
1709.41	10.24
1709.76	9.84
1710.12	9.24
1710.47	8.72
1710.82	7.88
1711.17	8.6
1711.52	7.92
1711.87	9.12
1712.23	10.28
1712.58	11.76
1712.93	12.4
1713.28	13.2
1713.63	13.16
1713.98	12.68
1714.33	12.12
1714.69	12.4
1715.04	12.72
1715.39	12.6
1715.74	12.76
1716.09	13.56
1716.44	13.76
1716.79	14.68
1717.14	15.32
1717.5	15.8
1717.85	15.44
1718.2	15.44
1718.55	15.28
1718.9	15.76
1719.25	16.32
1719.6	17.2
1719.95	16.96
1720.3	17.84
1720.65	18.44
1721.01	18.72
1721.36	20.04
1721.71	20.24
1722.06	20.4
1722.41	17.96
1722.76	18.4
1723.11	18.64
1723.46	20.4
1723.81	21.6
1724.16	23.92
1724.51	26.36
1724.86	26.84
1725.21	28
1725.56	29.6
1725.92	32.04
1726.27	32.32
1726.62	33.92
1726.97	34.52
1727.32	35.04
1727.67	35.92
1728.02	36.48
1728.37	37.28
1728.72	39.44
1729.07	42.24
1729.42	44.28
1729.77	47.2
1730.12	49.92
1730.47	51.92
1730.82	53.08
1731.17	54.64
1731.52	58.2
1731.87	60.68
1732.22	63.36
1732.57	64.6
1732.92	66.88
1733.27	68.16
1733.62	70.08
1733.97	71.2
1734.32	73.84
1734.67	75.76
1735.02	75.36
1735.37	76.8
1735.72	79.6
1736.07	82.28
1736.42	85.6
1736.77	89.76
1737.12	92.44
1737.47	96.24
1737.82	98.16
1738.17	99.76
1738.52	100.8
1738.87	104.44
1739.22	105.64
1739.57	107.92
1739.92	109.92
1740.27	112.52
1740.62	113.2
1740.97	114.08
1741.32	117.28
1741.67	120
1742.02	120.88
1742.37	123.04
1742.72	127.2
1743.06	128.6
1743.41	130.84
1743.76	133.32
1744.11	135.36
1744.46	136.2
1744.81	136.68
1745.16	137.76
1745.51	140.96
1745.86	141.4
1746.21	143.72
1746.56	144.84
1746.91	146.52
1747.26	146.6
1747.6	149.52
1747.95	147.8
1748.3	149.2
1748.65	148.56
1749	149.28
1749.35	149.72
1749.7	151.24
1750.05	151.72
1750.4	154.4
1750.75	156.2
1751.09	156.36
1751.44	156.88
1751.79	156.48
1752.14	154.6
1752.49	154.68
1752.84	153.24
1753.19	153.08
1753.54	154.24
1753.88	154.24
1754.23	153
1754.58	153.96
1754.93	152.28
1755.28	150.44
1755.63	152.52
1755.98	150.04
1756.32	149.56
1756.67	151.44
1757.02	149.72
1757.37	147.56
1757.72	148.72
1758.07	145.68
1758.42	145.56
1758.76	144.44
1759.11	143
1759.46	143.52
1759.81	140
1760.16	135.96
1760.5	136.72
1760.85	131.4
1761.2	129.28
1761.55	129.68
1761.9	127.88
1762.25	127.28
1762.59	126.96
1762.94	123.44
1763.29	124.6
1763.64	120.88
1763.99	117.76
1764.33	116.2
1764.68	113.12
1765.03	111.64
1765.38	110.24
1765.73	105.92
1766.07	104.08
1766.42	101.2
1766.77	96.44
1767.12	96.44
1767.46	93.48
1767.81	92.8
1768.16	91.76
1768.51	88.44
1768.85	85.12
1769.2	86.24
1769.55	82
1769.9	81.08
1770.25	81.6
1770.59	81.88
1770.94	80.44
1771.29	79.8
1771.64	76.08
1771.98	74.88
1772.33	71.4
1772.68	66.92
1773.02	66.96
1773.37	67.32
1773.72	64.88
1774.07	64.72
1774.41	65.84
1774.76	63.52
1775.11	62.6
1775.46	62.36
1775.8	59.6
1776.15	59.96
1776.5	58.68
1776.84	55.84
1777.19	53.96
1777.54	52.88
1777.89	51.72
1778.23	52.84
1778.58	53.68
1778.93	54.4
1779.27	55.92
1779.62	53.16
1779.97	52.48
1780.31	52.6
1780.66	51.56
1781.01	52.48
1781.35	53.88
1781.7	53.52
1782.05	55.36
1782.39	55.2
1782.74	56.56
1783.09	59.12
1783.43	59.28
1783.78	59.2
1784.13	60
1784.47	55.76
1784.82	54
1785.17	57.44
1785.51	62.28
1785.86	69.96
1786.21	76.84
1786.55	81.52
1786.9	83.44
1787.25	82.68
1787.59	78.16
1787.94	77.68
1788.29	76.28
1788.63	77.04
1788.98	76.72
1789.32	78.72
1789.67	80.08
1790.02	88.6
1790.36	108.08
1790.71	130.56
1791.06	141.88
1791.4	157.04
1791.75	169.08
1792.09	169.88
1792.44	168.8
1792.79	171.52
1793.13	174
1793.48	171.72
1793.82	159.72
1794.17	151.28
1794.52	149.28
1794.86	140.68
1795.21	131.84
1795.55	123.68
1795.9	141.84
1796.24	197.52
1796.59	227.84
1796.94	258.12
1797.28	284.44
1797.63	274.44
1797.97	237.72
1798.32	228
1798.66	237.44
1799.01	245.08
1799.36	248.04
1799.7	268.04
1800.05	277.08
1800.39	257.84
1800.74	309.4
1801.08	367.32
1801.43	368.88
1801.77	371.36
1802.12	389.64
1802.46	361.52
1802.81	326.8
1803.15	314.8
1803.5	315.96
1803.85	298.8
1804.19	290.16
1804.54	316.28
1804.88	328
1805.23	337.04
1805.57	399.92
1805.92	444.48
1806.26	444.12
1806.61	451.68
1806.95	498.12
1807.3	533.84
1807.64	541.04
1807.99	546.12
1808.33	544.92
1808.68	509.68
1809.02	509.12
1809.37	547.08
1809.71	571.96
1810.06	600.76
1810.4	606.64
1810.75	554.4
1811.09	569.76
1811.43	639
1811.78	706.2
1812.12	782.08
1812.47	827.76
1812.81	787.4
1813.16	741.8
1813.5	696.64
1813.85	651.08
1814.19	639.8
1814.54	614.04
1814.88	567.48
1815.23	531.52
1815.57	483.32
1815.91	424.28
1816.26	469.72
1816.6	562.76
1816.95	616.32
1817.29	705.04
1817.64	811.88
1817.98	859.88
1818.32	883.2
1818.67	919.84
1819.01	924.28
1819.36	908.92
1819.7	849.36
1820.05	785.64
1820.39	787.8
1820.73	775.56
1821.08	754.24
1821.42	761.76
1821.77	742.8
1822.11	656.56
1822.45	637.44
1822.8	650.8
1823.14	603.88
1823.49	634.52
1823.83	792.04
1824.17	884.2
1824.52	929.64
1824.86	1017.96
1825.2	1010.12
1825.55	902.44
1825.89	808.4
1826.24	752.56
1826.58	797.4
1826.92	859.76
1827.27	888.12
1827.61	943.8
1827.95	977.36
1828.3	884.96
1828.64	804.52
1828.98	747.88
1829.33	680.32
1829.67	744.48
1830.02	839.08
1830.36	892.48
1830.7	1007.96
1831.05	1110.52
1831.39	1057.04
1831.73	1006.96
1832.08	1005.4
1832.42	923.76
1832.76	863.44
1833.1	848.44
1833.45	799.96
1833.79	748.84
1834.13	752.92
1834.48	749.84
1834.82	748.04
1835.16	773.6
1835.51	775.56
1835.85	754.8
1836.19	740.68
1836.54	677.56
1836.88	615.84
1837.22	562.36
1837.56	525.92
1837.91	528.68
1838.25	612.44
1838.59	695.4
1838.94	752.12
1839.28	785.8
1839.62	764.44
1839.96	711.64
1840.31	645.2
1840.65	590.56
1840.99	574.96
1841.34	678.12
1841.68	758.92
1842.02	818.36
1842.36	895.48
1842.71	899.96
1843.05	769.96
1843.39	724.56
1843.73	776.92
1844.08	813.2
1844.42	904.2
1844.76	1012.12
1845.1	1002.04
1845.45	914.32
1845.79	878.76
1846.13	838.12
1846.47	784.88
1846.81	754.16
1847.16	743.88
1847.5	754.16
1847.84	789.44
1848.18	826
1848.53	855.52
1848.87	884.24
1849.21	861.04
1849.55	791.92
1849.89	748.48
1850.24	716.32
1850.58	682.28
1850.92	659.88
1851.26	645.2
1851.6	630.4
1851.95	622.6
1852.29	617.24
1852.63	594.68
1852.97	576.6
1853.31	545.28
1853.66	510.52
1854	500.68
1854.34	498
1854.68	529.48
1855.02	562.2
1855.36	586.72
1855.71	575.4
1856.05	569.12
1856.39	526.88
1856.73	483
1857.07	461.48
1857.41	454.48
1857.76	445.16
1858.1	443.84
1858.44	427.72
1858.78	415.32
1859.12	394.04
1859.46	368.04
1859.8	329.96
1860.15	305.36
1860.49	313.48
1860.83	345.16
1861.17	373.92
1861.51	382.08
1861.85	391.92
1862.19	359.44
1862.53	320.48
1862.88	298.28
1863.22	294.56
1863.56	290.32
1863.9	294.8
1864.24	299.08
1864.58	280.72
1864.92	269.72
1865.26	267.32
1865.6	250.92
1865.94	221.6
1866.29	206.96
1866.63	189.48
1866.97	171.36
1867.31	156.56
1867.65	151.36
1867.99	151.56
1868.33	146.08
1868.67	137.48
1869.01	138.96
1869.35	159.12
1869.69	183.08
1870.03	203
1870.37	228.12
1870.72	241.88
1871.06	218.4
1871.4	181.56
1871.74	155.16
1872.08	129.88
1872.42	137.04
1872.76	155.2
1873.1	163.88
1873.44	165.92
1873.78	160.56
1874.12	126.6
1874.46	108.76
1874.8	123.08
1875.14	141.44
1875.48	150.36
1875.82	162.68
1876.16	162.36
1876.5	148
1876.84	131.68
1877.18	123.36
1877.52	111.08
1877.86	94.88
1878.2	75.4
1878.54	61.64
1878.88	54.72
1879.22	50.24
1879.56	48.2
1879.9	46.36
1880.24	45.12
1880.58	48.64
1880.92	57.04
1881.26	57.64
1881.6	53.76
1881.94	52.72
1882.28	49.2
1882.62	51.2
1882.96	65.12
1883.3	77.96
1883.64	79.6
1883.98	77.32
1884.32	66.12
1884.66	44.24
1885	33.2
1885.34	34.28
1885.68	35.36
1886.02	36
1886.36	37.52
1886.7	34.16
1887.04	30.36
1887.38	26.84
1887.72	23.72
1888.06	22.72
1888.39	28.2
1888.73	33.28
1889.07	53
1889.41	66.04
1889.75	73
1890.09	87.36
1890.43	93.24
1890.77	76.12
1891.11	61.44
1891.45	53.6
1891.79	36.04
1892.13	26.12
1892.47	24.4
1892.8	29.24
1893.14	34.04
1893.48	40.96
1893.82	47.64
1894.16	49.52
1894.5	48.88
1894.84	48.76
1895.18	44.64
1895.52	42.12
1895.86	45.12
1896.19	49.44
1896.53	54.32
1896.87	58.36
1897.21	59.88
1897.55	65.04
1897.89	70.24
1898.23	79.72
1898.57	79.16
1898.9	77.12
1899.24	76.08
1899.58	74.96
1899.92	68.4
1900.26	69.96
1900.6	76.56
1900.94	78.68
1901.27	80.96
1901.61	83.16
1901.95	87.6
1902.29	89.8
1902.63	93.2
1902.97	95.2
1903.3	98.52
1903.64	102.36
1903.98	103.36
1904.32	103.08
1904.66	102.44
1905	104.12
1905.33	105.12
1905.67	111.08
1906.01	117.52
1906.35	126.04
1906.69	126.28
1907.02	128.92
1907.36	127.4
1907.7	130.04
1908.04	129.4
1908.38	134.2
1908.71	136.72
1909.05	140.6
1909.39	141.24
1909.73	142.44
1910.07	142.16
1910.4	141.8
1910.74	142.12
1911.08	144.56
1911.42	147.2
1911.76	150.56
1912.09	154.48
1912.43	157.96
1912.77	159.68
1913.11	162.96
1913.44	165.44
1913.78	168.84
1914.12	171.16
1914.46	173.28
1914.79	174.12
1915.13	175.28
1915.47	173.56
1915.81	173.84
1916.14	174.6
1916.48	176.8
1916.82	179.08
1917.16	182.4
1917.49	186.52
1917.83	187.52
1918.17	186.76
1918.5	187
1918.84	184.76
1919.18	182.24
1919.52	181.68
1919.85	181.92
1920.19	181.68
1920.53	184.64
1920.87	186.2
1921.2	189.2
1921.54	190.4
1921.88	191.76
1922.21	191.68
1922.55	193.48
1922.89	192.28
1923.22	191.6
1923.56	192.4
1923.9	192.8
1924.23	191.92
1924.57	191.92
1924.91	195.52
1925.25	194.96
1925.58	198.56
1925.92	199.2
1926.26	202.24
1926.59	201.72
1926.93	205.36
1927.27	204.64
1927.6	207.24
1927.94	205.36
1928.28	207.72
1928.61	206.32
1928.95	207.8
1929.29	208.12
1929.62	209.88
1929.96	208.6
1930.29	211.28
1930.63	211.44
1930.97	209.76
1931.3	211.92
1931.64	211.88
1931.98	210.88
1932.31	207.96
1932.65	208.88
1932.99	206.28
1933.32	207.12
1933.66	206
1933.99	204.92
1934.33	205.4
1934.67	203.96
1935	201.96
1935.34	201.64
1935.67	205.92
1936.01	201.92
1936.35	202.2
1936.68	202.88
1937.02	199.92
1937.35	197.2
1937.69	198.96
1938.03	198.76
1938.36	193.44
1938.7	195.84
1939.03	193.56
1939.37	193.44
1939.7	193.56
1940.04	196.52
1940.38	193.2
1940.71	194.32
1941.05	192.64
1941.38	188.76
1941.72	188.2
1942.05	187.48
1942.39	184.56
1942.73	183.4
1943.06	184.68
1943.4	181.04
1943.73	181.28
1944.07	180.32
1944.4	177.48
1944.74	174.24
1945.07	172.84
1945.41	170.28
1945.74	167.88
1946.08	168.44
1946.42	166.24
1946.75	163.96
1947.09	162.52
1947.42	161.12
1947.76	155.72
1948.09	154.84
1948.43	154.16
1948.76	148.92
1949.1	144.56
1949.43	145.32
1949.77	140.32
1950.1	136.28
1950.44	136.48
1950.77	137.32
1951.11	131.16
1951.44	129.64
1951.78	128.52
1952.11	125.76
1952.45	119.88
1952.78	121.96
1953.12	122.08
1953.45	119.92
1953.79	115.92
1954.12	118.36
1954.46	113.88
1954.79	109.16
1955.12	107.12
1955.46	107.12
1955.79	101.92
1956.13	100.96
1956.46	99.08
1956.8	96
1957.13	91.84
1957.47	90.8
1957.8	89.52
1958.14	86.12
1958.47	84.2
1958.8	83.32
1959.14	81.72
1959.47	76.48
1959.81	76.84
1960.14	74.4
1960.48	72.04
1960.81	69.12
1961.14	69.08
1961.48	66.72
1961.81	65.04
1962.15	63.68
1962.48	61.36
1962.82	57.96
1963.15	57
1963.48	55.16
1963.82	53.04
1964.15	50.56
1964.49	48.48
1964.82	46.24
1965.15	44.24
1965.49	42.12
1965.82	39.32
1966.16	37.52
1966.49	33.56
1966.82	32.92
1967.16	32.6
1967.49	33.96
1967.83	33.56
1968.16	34.08
1968.49	32.88
1968.83	28.84
1969.16	25.6
1969.49	22.88
1969.83	20.92
1970.16	18.16
1970.49	16.24
1970.83	14.32
1971.16	13.8
1971.5	11.68
1971.83	11.6
1972.16	11.16
1972.5	10.4
1972.83	9.92
1973.16	10.52
1973.5	9.2
1973.83	8.84
1974.16	8.64
1974.5	7.48
1974.83	6.88
1975.16	5.56
1975.5	5.6
1975.83	5.04
1976.16	5.24
1976.49	4.68
1976.83	4.36
1977.16	3.6
1977.49	3.72
1977.83	2.68
1978.16	2.2
1978.49	2.32
1978.83	2.52
1979.16	2.16
1979.49	2.16
1979.83	1.4
1980.16	1.28
1980.49	1.08
1980.82	1.28
1981.16	1.16
1981.49	1.76
1981.82	1.52
1982.15	1.44
1982.49	1.24
1982.82	1.2
1983.15	0.96
1983.49	1.24
1983.82	1.6
1984.15	1.68
1984.48	1.68
1984.82	1.72
1985.15	1.68
1985.48	1.4
1985.81	1.08
1986.15	0.92
1986.48	1.32
1986.81	1.8
1987.14	1.92
1987.48	1.76
1987.81	2.24
1988.14	2.2
1988.47	1.64
1988.81	1.32
1989.14	2.04
1989.47	2.08
1989.8	1.76
1990.13	2.04
1990.47	3.12
1990.8	3.4
1991.13	3.2
1991.46	3.56
1991.79	4.24
1992.13	4.2
1992.46	4.16
1992.79	6.68
1993.12	6.96
1993.45	7.36
1993.79	8.2
1994.12	10.28
1994.45	8.56
1994.78	9.36
1995.11	9.16
1995.45	9.36
1995.78	7.48
1996.11	8.6
1996.44	8.68
1996.77	10.12
1997.1	10.88
1997.44	11.48
1997.77	12.04
1998.1	12.16
1998.43	12.24
1998.76	12.4
1999.09	13.44
1999.43	11.12
1999.76	13.6
2000.09	14.44
2000.42	15.92
2000.75	15.8
2001.08	20.48
2001.41	20.32
2001.75	21.92
2002.08	22.08
2002.41	23.96
2002.74	23.84
2003.07	25.4
2003.4	26.6
2003.73	26.36
2004.06	27.48
2004.4	28.16
2004.73	27
2005.06	25.92
2005.39	26.56
2005.72	26.88
2006.05	26.6
2006.38	26.56
2006.71	27.28
2007.04	27.28
2007.37	27
2007.71	27
2008.04	26.64
2008.37	25.36
2008.7	26.8
2009.03	26.44
2009.36	26
2009.69	27.68
2010.02	28.76
2010.35	27.16
2010.68	27.2
2011.01	27.84
2011.34	26.44
2011.67	24.2
2012.01	25
2012.34	24.68
2012.67	22.96
2013	21.68
2013.33	22.6
2013.66	21.08
2013.99	20.28
2014.32	21.56
2014.65	21.08
2014.98	20.44
2015.31	20.56
2015.64	19.56
2015.97	18.08
2016.3	18.12
2016.63	19.12
2016.96	19.6
2017.29	18.96
2017.62	18.6
2017.95	19.16
2018.28	17.32
2018.61	16.04
2018.94	15.96
2019.27	15.04
2019.6	14.6
2019.93	14.36
2020.26	13.76
2020.59	13.36
2020.92	12.52
2021.25	11.84
2021.58	10.76
2021.91	9.84
2022.24	9.64
2022.57	9.48
2022.9	8.08
2023.23	7.8
2023.56	6.84
2023.89	5.52
2024.22	5.12
2024.55	5.12
2024.88	4.76
2025.21	5.12
2025.54	4.4
2025.87	4.44
2026.2	3.92
2026.53	3.68
2026.86	2.68
2027.19	3.56
2027.52	2.6
2027.85	2.44
2028.18	1.72
2028.51	1.76
2028.84	1.24
2029.16	1.08
2029.49	0.92
2029.82	0.88
2030.15	0.48
2030.48	-0.28
2030.81	0.2
2031.14	0.24
2031.47	0.64
2031.8	0.76
2032.13	1.48
2032.46	1
2032.79	0.84
2033.12	1.08
2033.44	1.64
2033.77	1.4
2034.1	1.8
2034.43	1.96
2034.76	1.84
2035.09	1.48
2035.42	1.48
2035.75	1.08
2036.08	0.96
2036.41	1.04
2036.73	0.72
2037.06	0.8
2037.39	0.8
2037.72	1.04
2038.05	0.52
2038.38	0.6
2038.71	0.6
2039.04	0.08
2039.36	-0.2
2039.69	-0.32
2040.02	-0.8
2040.35	-0.72
2040.68	-0.16
2041.01	0.04
2041.34	0.08
2041.66	0.8
2041.99	0.8
2042.32	0.84
2042.65	0.68
2042.98	1.36
2043.31	1.08
2043.63	1.04
2043.96	1.12
2044.29	1.12
2044.62	0.6
2044.95	0.64
2045.28	0.76
2045.6	1.12
2045.93	1.4
2046.26	1.64
2046.59	1.6
2046.92	1.8
2047.24	1.44
2047.57	1.72
2047.9	1.76
2048.23	2.36
2048.56	1.96
2048.88	2.04
2049.21	1.44
2049.54	1.44
2049.87	1.12
2050.2	1.68
2050.52	2
2050.85	2.48
2051.18	2.84
2051.51	3.48
2051.83	3.08
2052.16	2.88
2052.49	2.52
2052.82	1.76
2053.15	1.36
2053.47	1.48
2053.8	1.6
2054.13	1.68
2054.46	2.72
2054.78	2.44
2055.11	2.6
2055.44	2.52
2055.77	2.64
2056.09	1.56
2056.42	1.36
2056.75	1
2057.08	1
2057.4	0.8
2057.73	1.36
2058.06	2.12
2058.38	2.08
2058.71	1.96
2059.04	3.04
2059.37	2.6
2059.69	2.4
2060.02	2.76
2060.35	2.8
2060.67	2
2061	2.16
2061.33	1.76
2061.66	1.64
2061.98	1.8
2062.31	1.6
2062.64	1.28
2062.96	1.12
2063.29	1.36
2063.62	1.24
2063.94	1.68
2064.27	1.88
2064.6	1.56
2064.92	1.28
2065.25	1.36
2065.58	1
2065.91	1.28
2066.23	1.92
2066.56	1.72
2066.89	1.6
2067.21	1.68
2067.54	1.64
2067.87	1.24
2068.19	1.16
2068.52	0.96
2068.84	0.64
2069.17	0.68
2069.5	0.8
2069.82	1
2070.15	1.16
2070.48	1.08
2070.8	0.6
2071.13	0.76
2071.46	0.88
2071.78	0.96
2072.11	1.04
2072.43	1.12
2072.76	0.88
2073.09	0.84
2073.41	0.72
2073.74	1.2
2074.07	1.32
2074.39	1.28
2074.72	1.16
2075.04	1.24
2075.37	0.84
2075.7	0.64
2076.02	0.68
2076.35	0.84
2076.67	0.52
2077	0.72
2077.33	1.32
2077.65	1.36
2077.98	1.52
2078.3	1.56
2078.63	1.6
2078.95	1
2079.28	1.08
2079.61	0.36
2079.93	0.76
2080.26	0.36
2080.58	1
2080.91	0.84
2081.23	1.68
2081.56	1.24
2081.89	1.48
2082.21	0.92
2082.54	1.36
2082.86	0.76
2083.19	0.76
2083.51	1.04
2083.84	1.24
2084.16	0.8
2084.49	1.12
2084.81	1.28
2085.14	1.36
2085.46	1.24
2085.79	1.24
2086.12	1.12
2086.44	0.96
2086.77	0.96
2087.09	1
2087.42	1.32
2087.74	1.76
2088.07	2
2088.39	1.68
2088.72	1.56
2089.04	1.4
2089.37	1.2
2089.69	1.12
2090.02	1.4
2090.34	1
2090.67	1.08
2090.99	-1.28
2091.32	-1.24
2091.64	-1.32
2091.97	-1
2092.29	-1.24
2092.62	0.76
2092.94	0.64
2093.26	0.4
2093.59	0.68
2093.91	-0.52
2094.24	-0.48
2094.56	-0.2
2094.89	-0.16
2095.21	0.04
2095.54	1.88
2095.86	1.84
2096.19	1.48
2096.51	1.36
2096.84	0.96
2097.16	0.4
2097.48	0.68
2097.81	0.84
2098.13	1.04
2098.46	0.76
2098.78	0.68
2099.11	0.36
2099.43	0.32
2099.75	0.04
2100.08	0.24
2100.4	0.52
2100.73	0.88
2101.05	0.8
2101.38	1.08
2101.7	1.76
2102.02	1.48
2102.35	1.12
2102.67	1.48
2103	1.16
2103.32	0.56
2103.64	1.08
2103.97	1.12
2104.29	0.96
2104.62	1.16
2104.94	1.2
2105.26	0.12
2105.59	0.12
2105.91	0.24
2106.23	0.04
2106.56	-0.08
2106.88	0.76
2107.21	0.92
2107.53	0.76
2107.85	0.92
2108.18	0.92
2108.5	0.84
2108.82	0.64
2109.15	0.44
2109.47	0.36
2109.79	0.68
2110.12	0.64
2110.44	0.96
2110.76	1.44
2111.09	1.8
2111.41	1.76
2111.73	1.88
2112.06	2.16
2112.38	1.76
2112.7	1.24
2113.03	1.04
2113.35	0.76
2113.67	0.12
2114	0.24
2114.32	0.36
2114.64	0.4
2114.97	0.76
2115.29	1.12
2115.61	1.44
2115.94	1.72
2116.26	1.84
2116.58	1.52
2116.91	0.24
2117.23	0.24
2117.55	-0.12
2117.87	-0.28
2118.2	0.24
2118.52	1.4
2118.84	1.4
2119.17	1.44
2119.49	1.48
2119.81	1.08
2120.13	0.84
2120.46	0.6
2120.78	-0.36
2121.1	-0.4
2121.42	-0.32
2121.75	-0.28
2122.07	-0.2
2122.39	1
2122.72	0.92
2123.04	0.68
2123.36	1.04
2123.68	1.24
2124.01	0.96
2124.33	1.2
2124.65	1.68
2124.97	1.28
2125.29	0.84
2125.62	1.08
2125.94	0.84
2126.26	0.44
2126.58	0.44
2126.91	-0.64
2127.23	-0.88
2127.55	-0.56
2127.87	-0.64
2128.2	-0.44
2128.52	0.52
2128.84	0.6
2129.16	0.36
2129.48	0.48
2129.81	0.52
2130.13	0.64
2130.45	0.56
2130.77	0.8
2131.09	1.12
2131.42	0.88
2131.74	0.76
2132.06	1.08
2132.38	0.92
2132.7	0.68
2133.02	0.76
2133.35	0.92
2133.67	0.68
2133.99	0.72
2134.31	0.08
2134.63	0.12
2134.96	-0.04
2135.28	-4.88501e-17
2135.6	-0.04
2135.92	0.4
2136.24	0.8
2136.56	1.04
2136.88	0.92
2137.21	0.92
2137.53	1.04
2137.85	0.72
2138.17	0.04
2138.49	0.16
2138.81	0.12
2139.13	0.72
2139.46	0.52
2139.78	1.16
2140.1	1.12
2140.42	1.16
2140.74	0.72
2141.06	0.76
2141.38	0.88
2141.7	1.36
2142.03	1.44
2142.35	1.56
2142.67	1.72
2142.99	1.6
2143.31	1.16
2143.63	1
2143.95	0.8
2144.27	0.6
2144.59	0.44
2144.91	0.64
2145.24	0.92
2145.56	0.88
2145.88	0.88
2146.2	0.96
2146.52	0.72
2146.84	0.96
2147.16	0.8
2147.48	1.16
2147.8	1.16
2148.12	1.08
2148.44	0.68
2148.76	0.68
2149.08	0.32
2149.41	0.28
2149.73	0.28
2150.05	0.24
2150.37	0.4
2150.69	0.6
2151.01	0.84
2151.33	1.12
2151.65	0.96
2151.97	0.96
2152.29	0.92
2152.61	0.2
2152.93	-0.04
2153.25	-0.04
2153.57	0.16
2153.89	0.24
2154.21	0.24
2154.53	0.6
2154.85	0.76
2155.17	0.44
2155.49	2.77556e-17
2155.81	0.68
2156.13	0.44
2156.45	0.72
2156.77	0.68
2157.09	1.2
2157.41	1.52
2157.73	1.56
2158.05	1.36
2158.37	1.44
2158.69	1.16
2159.01	0.8
2159.33	0.8
2159.65	0.92
2159.97	0.96
2160.29	1
2160.61	1.04
2160.93	1.32
2161.25	0.96
2161.57	0.88
2161.89	0.8
2162.21	0.52
2162.53	0.28
2162.85	2.88669e-17
2163.17	0.04
2163.49	0.04
2163.81	0.24
2164.13	0.4
2164.45	0.16
2164.77	0.16
2165.08	0.16
2165.4	-1.02694e-17
2165.72	-0.28
2166.04	0.64
2166.36	0.56
2166.68	0.56
2167	0.52
2167.32	1.12
2167.64	1.12
2167.96	1.36
2168.28	1.48
2168.6	1.52
2168.92	1.12
2169.24	0.96
2169.55	0.84
2169.87	1.04
2170.19	1.08
2170.51	0.76
2170.83	1.16
2171.15	1.04
2171.47	0.72
2171.79	0.76
2172.11	0.92
2172.43	0.68
2172.74	0.88
2173.06	1.08
2173.38	1.44
2173.7	1.28
2174.02	0.88
2174.34	0.96
2174.66	0.76
2174.98	0.44
2175.29	0.48
2175.61	0.68
2175.93	0.44
2176.25	0.68
2176.57	0.68
2176.89	1
2177.21	1.16
2177.52	1.52
2177.84	1.48
2178.16	1.44
2178.48	1.08
2178.8	0.84
2179.12	0.68
2179.43	0.56
2179.75	-0.48
2180.07	-0.2
2180.39	-0.2
2180.71	-0.2
2181.03	-0.28
2181.34	0.68
2181.66	0.48
2181.98	0.84
2182.3	1.04
2182.62	1.36
2182.93	0.92
2183.25	0.92
2183.57	0.44
2183.89	0.08
2184.21	-0.12
2184.52	0.64
2184.84	0.84
2185.16	0.84
2185.48	0.88
2185.8	0.76
2186.11	0.8
2186.43	0.6
2186.75	0.6
2187.07	0.12
2187.39	-0.6
2187.7	-1
2188.02	-1.68
2188.34	-1.68
2188.66	-1.24
2188.97	-0.4
2189.29	-0.32
2189.61	0.48
2189.93	0.88
2190.24	1.16
2190.56	1.04
2190.88	0.96
2191.2	0.8
2191.51	0.4
2191.83	0.56
2192.15	0.56
2192.47	0.6
2192.78	0.72
2193.1	1
2193.42	0.48
2193.74	0.92
2194.05	0.88
2194.37	0.72
2194.69	0.52
2195	0.4
2195.32	0.24
2195.64	0.4
2195.96	0.44
2196.27	0.8
2196.59	0.36
2196.91	0.32
2197.22	0.28
2197.54	0.28
2197.86	0.08
2198.18	0.68
2198.49	0.8
2198.81	0.96
2199.13	1.32
2199.44	1.08
2199.76	1.28
2200.08	1
2200.39	0.72
2200.71	0.32
2201.03	0.44
2201.34	0.2
2201.66	0.16
2201.98	0.36
2202.29	0.36
2202.61	0.8
2202.93	0.88
2203.24	1.16
2203.56	1.04
2203.88	1.04
2204.19	0.48
2204.51	0.4
2204.83	0.44
2205.14	0.36
2205.46	1.32
2205.78	2.04
2206.09	2.24
2206.41	1.68
2206.72	1.52
2207.04	1.04
2207.36	-8.4378e-17
2207.67	-0.16
2207.99	0.04
2208.31	0.28
2208.62	-0.2
2208.94	0.28
2209.25	0.32
2209.57	0.32
2209.89	0.24
2210.2	0.24
2210.52	0.08
2210.83	0.28
2211.15	0.28
2211.47	0.28
2211.78	0.52
2212.1	0.2
2212.41	0.24
2212.73	0.6
2213.05	0.96
2213.36	0.76
2213.68	1.08
2213.99	1.08
2214.31	0.84
2214.62	0.6
2214.94	0.6
2215.26	0.6
2215.57	0.52
2215.89	0.56
2216.2	0.64
2216.52	0.96
2216.83	0.96
2217.15	0.8
2217.46	0.64
2217.78	0.44
2218.1	-0.08
2218.41	0.04
2218.73	0.04
2219.04	0.08
2219.36	0.28
2219.67	0.68
2219.99	0.6
2220.3	0.52
2220.62	0.56
2220.93	0.6
2221.25	0.48
2221.56	0.44
2221.88	0.44
2222.19	0.64
2222.51	0.4
2222.82	-0.8
2223.14	-0.8
2223.45	-0.44
2223.77	-0.56
2224.08	-0.52
2224.4	0.56
2224.71	0.88
2225.03	0.52
2225.34	0.44
2225.66	-0.68
2225.97	-0.68
2226.29	-0.72
2226.6	-0.64
2226.92	-0.6
2227.23	0.56
2227.55	0.72
2227.86	0.48
2228.18	0.4
2228.49	0.28
2228.81	0.2
2229.12	0.28
2229.44	0.56
2229.75	0.8
2230.07	0.96
2230.38	1.12
2230.69	1.08
2231.01	0.76
2231.32	0.52
2231.64	0.68
2231.95	0.68
2232.27	0.56
2232.58	0.72
2232.9	0.76
2233.21	0.84
2233.52	0.8
2233.84	0.96
2234.15	1.04
2234.47	1.12
2234.78	1.12
2235.1	1.12
2235.41	1.04
2235.72	0.96
2236.04	1.24
2236.35	0.88
2236.67	0.2
2236.98	0.4
2237.29	0.56
2237.61	0.16
2237.92	0.12
2238.24	0.92
2238.55	0.56
2238.86	0.36
2239.18	0.48
2239.49	-0.24
2239.8	-0.36
2240.12	-0.36
2240.43	-0.28
2240.75	-0.4
2241.06	0.48
2241.37	0.36
2241.69	0.72
2242	0.56
2242.31	0.76
2242.63	0.6
2242.94	0.84
2243.26	2.88669e-17
2243.57	-3.33053e-18
2243.88	-0.2
2244.2	-0.04
2244.51	-0.2
2244.82	0.4
2245.14	0.36
2245.45	0.36
2245.76	0.4
2246.08	0.36
2246.39	0.44
2246.7	0.76
2247.02	0.76
2247.33	0.72
2247.64	0.72
2247.96	0.72
2248.27	0.4
2248.58	-0.52
2248.9	-0.64
2249.21	-0.64
2249.52	-0.76
2249.83	-0.68
2250.15	0.32
2250.46	0.52
2250.77	0.64
2251.09	0.56
2251.4	0.56
2251.71	0.48
2252.03	0.4
2252.34	0.44
2252.65	0.48
2252.96	0.48
2253.28	0.48
2253.59	0.4
2253.9	0.2
2254.21	0.32
2254.53	0.52
2254.84	0.28
2255.15	0.2
2255.47	0.28
2255.78	0.6
2256.09	0.32
2256.4	0.84
2256.72	0.88
2257.03	0.8
2257.34	0.48
2257.65	0.56
2257.97	0.32
2258.28	0.6
2258.59	0.64
2258.9	0.52
2259.22	0.6
2259.53	0.6
2259.84	0.28
2260.15	0.24
2260.46	0.28
2260.78	0.16
2261.09	0.44
2261.4	0.72
2261.71	0.76
2262.03	0.88
2262.34	1.32
2262.65	1.12
2262.96	1.12
2263.27	1.12
2263.59	1.04
2263.9	0.6
2264.21	0.48
2264.52	0.28
2264.83	0.36
2265.15	0.28
2265.46	0.24
2265.77	0.36
2266.08	0.52
2266.39	0.4
2266.7	1.08
2267.02	1.28
2267.33	1.32
2267.64	1.08
2267.95	1.08
2268.26	0.44
2268.57	0.4
2268.89	0.48
2269.2	0.52
2269.51	0.72
2269.82	0.68
2270.13	0.6
2270.44	0.4
2270.76	-0.04
2271.07	-0.24
2271.38	-0.88
2271.69	-0.96
2272	-0.76
2272.31	-0.36
2272.62	-0.92
2272.93	-0.2
2273.25	0
2273.56	0.08
2273.87	0.24
2274.18	0.8
2274.49	0.72
2274.8	0.56
2275.11	0.44
2275.42	0.56
2275.74	0.76
2276.05	0.72
2276.36	0.68
2276.67	0.48
2276.98	0.28
2277.29	0.2
2277.6	0.2
2277.91	0.52
2278.22	0.12
2278.53	0.16
2278.85	0.04
2279.16	-0.8
2279.47	-0.72
2279.78	-0.32
2280.09	-0.4
2280.4	-0.4
2280.71	0.44
2281.02	0.08
2281.33	0.24
2281.64	0.2
2281.95	0.28
2282.26	0.4
2282.57	0.52
2282.88	0.68
2283.19	0.72
2283.5	0.64
2283.82	0.72
2284.13	0.56
2284.44	0.44
2284.75	-0.2
2285.06	-0.04
2285.37	-0.24
2285.68	-0.24
2285.99	-0.4
2286.3	0.2
2286.61	0.24
2286.92	0.44
2287.23	0.72
2287.54	0.68
2287.85	0.68
2288.16	0.48
2288.47	0.32
2288.78	0.48
2289.09	0.52
2289.4	0.6
2289.71	0.84
2290.02	0.8
2290.33	0.36
2290.64	0.32
2290.95	0.2
2291.26	0.08
2291.57	0.12
2291.88	-0.28
2292.19	-0.2
2292.5	-0.16
2292.81	-0.28
2293.12	-0.32
2293.43	0.08
2293.74	0
2294.05	0
2294.36	0
2294.67	0
2294.98	0
2295.29	0
2295.6	0
2295.91	0
2296.21	0
2296.52	0
2296.83	0
2297.14	0
2297.45	0
2297.76	0
2298.07	0
2298.38	0
2298.69	0
2299	0
2299.31	0
2299.62	0
2299.93	0
2300.24	0
2300.55	0
2300.85	0
2301.16	0
2301.47	0
2301.78	0
2302.09	0
2302.4	0
2302.71	0
2303.02	0
2303.33	0
2303.64	0
2303.94	0
2304.25	0
2304.56	0
2304.87	0
2305.18	0
2305.49	0
2305.8	0
2306.11	0
2306.42	0
2306.72	0
2307.03	0
2307.34	0
2307.65	0
2307.96	0
2308.27	0
2308.58	0
2308.88	0
2309.19	0
2309.5	0
2309.81	0
2310.12	0
2310.43	0
2310.74	0
2311.04	0
2311.35	0
2311.66	0
2311.97	0
2312.28	0
2312.59	0
2312.89	0
2313.2	0
2313.51	0
2313.82	0
2314.13	0
2314.43	0
2314.74	0
2315.05	0
2315.36	0
2315.67	0
2315.97	0
2316.28	0
2316.59	0
2316.9	0
2317.21	0
2317.51	0
2317.82	0
2318.13	0
2318.44	0
2318.75	0
2319.05	0
2319.36	0
2319.67	0
2319.98	0
2320.28	0
2320.59	0
2320.9	0
2321.21	0
2321.51	0
2321.82	0
2322.13	0
2322.44	0
2322.74	0
2323.05	0
2323.36	0
2323.67	0
2323.97	0
2324.28	0
2324.59	0
2324.9	0
2325.2	0
2325.51	0
2325.82	0
2326.13	0
2326.43	0
2326.74	0
2327.05	0
2327.35	0
2327.66	0
2327.97	0
2328.27	0
2328.58	0
2328.89	0
2329.2	0
2329.5	0
2329.81	0
2330.12	0
2330.42	0
2330.73	0
2331.04	0
2331.34	0
2331.65	0
2331.96	0
2332.26	0
2332.57	0
2332.88	0
2333.18	0
2333.49	0
2333.8	0
2334.1	0
2334.41	0
2334.72	0
2335.02	0
2335.33	0
2335.64	0
2335.94	0
2336.25	0
2336.56	0
2336.86	0
2337.17	0
2337.48	0
2337.78	0
2338.09	0
2338.39	0
2338.7	0
2339.01	0
2339.31	0
2339.62	0
2339.93	0
2340.23	0
2340.54	0
2340.84	0
2341.15	0
2341.46	0
2341.76	0
2342.07	0
2342.37	0
2342.68	0
2342.99	0
2343.29	0
2343.6	0
2343.9	0
2344.21	0
2344.51	0
2344.82	0
2345.13	0
2345.43	0
2345.74	0
2346.04	0
2346.35	0
2346.65	0
2346.96	0
2347.27	0
2347.57	0
2347.88	0
2348.18	0
2348.49	0
2348.79	0
2349.1	0
2349.4	0
2349.71	0
2350.01	0
2350.32	0
2350.63	0
2350.93	0
2351.24	0
2351.54	0
2351.85	0
2352.15	0
2352.46	0
2352.76	0
2353.07	0
2353.37	0
2353.68	0
2353.98	0
2354.29	0
2354.59	0
2354.9	0
2355.2	0
2355.51	0
2355.81	0
2356.12	0
2356.42	0
2356.73	0
2357.03	0
2357.34	0
2357.64	0
2357.95	0
2358.25	0
2358.55	0
2358.86	0
2359.16	0
2359.47	0
2359.77	0
2360.08	0
2360.38	0
2360.69	0
2360.99	0
2361.3	0
2361.6	0
2361.9	0
2362.21	0
2362.51	0
2362.82	0
2363.12	0
2363.43	0
2363.73	0
2364.04	0
2364.34	0
2364.64	0
2364.95	0
2365.25	0
2365.56	0
2365.86	0
2366.16	0
2366.47	0
2366.77	0
2367.08	0
2367.38	0
2367.68	0
2367.99	0
2368.29	0
2368.6	0
2368.9	0
2369.2	0
2369.51	0
2369.81	0
2370.12	0
2370.42	0
2370.72	0
2371.03	0
2371.33	0
2371.63	0
2371.94	0
2372.24	0
2372.55	0
2372.85	0
2373.15	0
2373.46	0
2373.76	0
2374.06	0
2374.37	0
2374.67	0
2374.97	0
2375.28	0
2375.58	0
2375.88	0
2376.19	0
2376.49	0
2376.79	0
2377.1	0
2377.4	0
2377.7	0
2378.01	0
2378.31	0
2378.61	0
2378.92	0
2379.22	0
2379.52	0
2379.82	0
2380.13	0
2380.43	0
2380.73	0
2381.04	0
2381.34	0
2381.64	0
2381.95	0
2382.25	0
2382.55	0
2382.85	0
2383.16	0
2383.46	0
2383.76	0
2384.06	0
2384.37	0
2384.67	0
2384.97	0
2385.28	0
2385.58	0
2385.88	0
2386.18	0
2386.49	0
2386.79	0
2387.09	0
2387.39	0
2387.69	0
2388	0
2388.3	0
2388.6	0
2388.9	0
2389.21	0
2389.51	0
2389.81	0
2390.11	0
2390.42	0
2390.72	0
2391.02	0
2391.32	0
2391.62	0
2391.93	0
2392.23	0
2392.53	0
2392.83	0
2393.13	0
2393.44	0
2393.74	0
2394.04	0
2394.34	0
2394.64	0
2394.95	0
2395.25	0
2395.55	0
2395.85	0
2396.15	0
2396.45	0
2396.76	0
2397.06	0
2397.36	0
2397.66	0
2397.96	0
2398.26	0
2398.57	0
2398.87	0
2399.17	0
2399.47	0
2399.77	0
2400.07	0
2400.37	0
2400.68	0
2400.98	0
2401.28	0
2401.58	0
2401.88	0
2402.18	0
2402.48	0
2402.79	0
2403.09	0
2403.39	0
2403.69	0
2403.99	0
2404.29	0
2404.59	0
2404.89	0
2405.19	0
2405.5	0
2405.8	0
2406.1	0
2406.4	0
2406.7	0
2407	0
2407.3	0
2407.6	0
2407.9	0
2408.2	0
2408.5	0
2408.8	0
2409.11	0
2409.41	0
2409.71	0
2410.01	0
2410.31	0
2410.61	0
2410.91	0
2411.21	0
2411.51	0
2411.81	0
2412.11	0
2412.41	0
2412.71	0
2413.01	0
2413.31	0
2413.61	0
2413.91	0
2414.21	0
2414.51	0
2414.81	0
2415.12	0
2415.42	0
2415.72	0
2416.02	0
2416.32	0
2416.62	0
2416.92	0
2417.22	0
2417.52	0
2417.82	0
2418.12	0
2418.42	0
2418.72	0
2419.02	0
2419.32	0
2419.62	0
2419.92	0
2420.22	0
2420.52	0
2420.82	0
2421.12	0
2421.42	0
2421.71	0
2422.01	0
2422.31	0
2422.61	0
2422.91	0
2423.21	0
2423.51	0
2423.81	0
2424.11	0
2424.41	0
2424.71	0
2425.01	0
2425.31	0
2425.61	0
2425.91	0
2426.21	0
2426.51	0
2426.81	0
2427.11	0
2427.41	0
2427.7	0
2428	0
2428.3	0
2428.6	0
2428.9	0
2429.2	0
2429.5	0
2429.8	0
2430.1	0
2430.4	0
2430.7	0
2430.99	0
2431.29	0
2431.59	0
2431.89	0
2432.19	0
2432.49	0
2432.79	0
2433.09	0
2433.39	0
2433.68	0
2433.98	0
2434.28	0
2434.58	0
2434.88	0
2435.18	0
2435.48	0
2435.78	0
2436.07	0
2436.37	0
2436.67	0
2436.97	0
2437.27	0
2437.57	0
2437.86	0
2438.16	0
2438.46	0
2438.76	0
2439.06	0
2439.36	0
2439.66	0
2439.95	0
2440.25	0
2440.55	0
2440.85	0
2441.15	0
2441.44	0
2441.74	0
2442.04	0
2442.34	0
2442.64	0
2442.93	0
2443.23	0
2443.53	0
2443.83	0
2444.13	0
2444.42	0
2444.72	0
2445.02	0
2445.32	0
2445.62	0
2445.91	0
2446.21	0
2446.51	0
2446.81	0
2447.1	0
2447.4	0
2447.7	0
2448	0
2448.3	0
2448.59	0
2448.89	0
2449.19	0
2449.49	0
2449.78	0
2450.08	0
2450.38	0
2450.68	0
2450.97	0
2451.27	0
2451.57	0
2451.87	0
2452.16	0
2452.46	0
2452.76	0
2453.05	0
2453.35	0
2453.65	0
2453.95	0
2454.24	0
2454.54	0
2454.84	0
2455.13	0
2455.43	0
2455.73	0
2456.03	0
2456.32	0
2456.62	0
2456.92	0
2457.21	0
2457.51	0
2457.81	0
2458.1	0
2458.4	0
2458.7	0
2458.99	0
2459.29	0
2459.59	0
2459.88	0
2460.18	0
2460.48	0
2460.77	0
2461.07	0
2461.37	0
2461.66	0
2461.96	0
2462.26	0
2462.55	0
2462.85	0
2463.15	0
2463.44	0
2463.74	0
2464.04	0
2464.33	0
2464.63	0
2464.92	0
2465.22	0
2465.52	0
2465.81	0
2466.11	0
2466.41	0
2466.7	0
2467	0
2467.29	0
2467.59	0
2467.89	0
2468.18	0
2468.48	0
2468.77	0
2469.07	0
2469.37	0
2469.66	0
2469.96	0
2470.25	0
2470.55	0
2470.84	0
2471.14	0
2471.44	0
2471.73	0
2472.03	0
2472.32	0
2472.62	0
2472.91	0
2473.21	0
2473.51	0
2473.8	0
2474.1	0
2474.39	0
2474.69	0
2474.98	0
2475.28	0
2475.57	0
2475.87	0
2476.17	0
2476.46	0
2476.76	0
2477.05	0
2477.35	0
2477.64	0
2477.94	0
2478.23	0
2478.53	0
2478.82	0
2479.12	0
2479.41	0
2479.71	0
2480	0
2480.3	0
2480.59	0
2480.89	0
2481.18	0
2481.48	0
2481.77	0
2482.07	0
2482.36	0
2482.66	0
2482.95	0
2483.25	0
2483.54	0
2483.84	0
2484.13	0
2484.43	0
2484.72	0
2485.02	0
2485.31	0
2485.6	0
2485.9	0
2486.19	0
2486.49	0
2486.78	0
2487.08	0
2487.37	0
2487.67	0
2487.96	0
2488.26	0
2488.55	0
2488.84	0
2489.14	0
2489.43	0
2489.73	0
2490.02	0
2490.32	0
2490.61	0
2490.9	0
2491.2	0
2491.49	0
2491.79	0
2492.08	0
2492.37	0
2492.67	0
2492.96	0
2493.26	0
2493.55	0
2493.84	0
2494.14	0
2494.43	0
2494.73	0
2495.02	0
2495.31	0
2495.61	0
2495.9	0
2496.2	0
2496.49	0
2496.78	0
2497.08	0
2497.37	0
2497.66	0
2497.96	0
2498.25	0
2498.54	0
2498.84	0
2499.13	0
2499.43	0
2499.72	0
2500.01	0
2500.31	0
2500.6	0
2500.89	0
2501.19	0
2501.48	0
2501.77	0
2502.07	0
2502.36	0
2502.65	0
2502.95	0
2503.24	0
2503.53	0
2503.82	0
2504.12	0
2504.41	0
2504.7	0
2505	0
2505.29	0
2505.58	0
2505.88	0
2506.17	0
2506.46	0
2506.76	0
2507.05	0
2507.34	0
2507.63	0
2507.93	0
2508.22	0
2508.51	0
2508.8	0
2509.1	0
2509.39	0
2509.68	0
2509.98	0
2510.27	0
2510.56	0
2510.85	0
2511.15	0
2511.44	0
2511.73	0
2512.02	0
2512.32	0
2512.61	0
2512.9	0
2513.19	0
2513.49	0
2513.78	0
2514.07	0
2514.36	0
2514.65	0
2514.95	0
2515.24	0
2515.53	0
2515.82	0
2516.12	0
2516.41	0
2516.7	0
2516.99	0
2517.28	0
2517.58	0
2517.87	0
2518.16	0
2518.45	0
2518.74	0
2519.04	0
2519.33	0
2519.62	0
2519.91	0
2520.2	0
2520.5	0
2520.79	0
2521.08	0
2521.37	0
2521.66	0
2521.95	0
2522.25	0
2522.54	0
2522.83	0
2523.12	0
2523.41	0
2523.7	0
2523.99	0
2524.29	0
2524.58	0
2524.87	0
2525.16	0
2525.45	0
2525.74	0
2526.03	0
2526.33	0
2526.62	0
2526.91	0
2527.2	0
2527.49	0
2527.78	0
2528.07	0
2528.36	0
2528.66	0
2528.95	0
2529.24	0
2529.53	0
2529.82	0
2530.11	0
2530.4	0
2530.69	0
2530.98	0
2531.27	0
2531.57	0
2531.86	0
2532.15	0
2532.44	0
2532.73	0
2533.02	0
2533.31	0
2533.6	0
2533.89	0
2534.18	0
2534.47	0
2534.76	0
2535.05	0
2535.35	0
2535.64	0
2535.93	0
2536.22	0
2536.51	0
2536.8	0
2537.09	0
2537.38	0
2537.67	0
2537.96	0
2538.25	0
2538.54	0
2538.83	0
2539.12	0
2539.41	0
2539.7	0
2539.99	0
2540.28	0
2540.57	0
2540.86	0
2541.15	0
2541.44	0
2541.73	0
2542.02	0
2542.31	0
2542.6	0
2542.89	0
2543.18	0
2543.47	0
2543.76	0
2544.05	0
2544.34	0
2544.63	0
2544.92	0
2545.21	0
2545.5	0
2545.79	0
2546.08	0
2546.37	0
2546.66	0
2546.95	0
2547.24	0
2547.53	0
2547.82	0
2548.11	0
2548.4	0
2548.69	0
2548.98	0
2549.27	0
2549.55	0
2549.84	0
2550.13	0
2550.42	0
2550.71	0
2551	0
2551.29	0
2551.58	0
2551.87	0
2552.16	0
2552.45	0
2552.74	0
2553.03	0
2553.31	0
2553.6	0
2553.89	0
2554.18	0
2554.47	0
2554.76	0
2555.05	0
2555.34	0
2555.63	0
2555.92	0
2556.2	0
2556.49	0
2556.78	0
2557.07	0
2557.36	0
2557.65	0
2557.94	0
2558.23	0
2558.51	0
2558.8	0
2559.09	0
2559.38	0
2559.67	0
2559.96	0
2560.25	0
2560.53	0
2560.82	0
2561.11	0
2561.4	0
2561.69	0
2561.98	0
2562.27	0
2562.55	0
2562.84	0
2563.13	0
2563.42	0
2563.71	0
2564	0
2564.28	0
2564.57	0
2564.86	0
2565.15	0
2565.44	0
2565.72	0
2566.01	0
2566.3	0
2566.59	0
2566.88	0
2567.16	0
2567.45	0
2567.74	0
2568.03	0
2568.32	0
2568.6	0
2568.89	0
2569.18	0
2569.47	0
2569.75	0

