Source: Spectrum Viewer

Chart: Pulse Spectrum

Series: 
Wavelength (nm)	S (a.u.)
1179.9	0
1180.29	0
1180.68	0
1181.06	0
1181.45	0
1181.83	0
1182.22	0
1182.6	0
1182.99	0
1183.38	0
1183.76	0
1184.15	0
1184.53	0
1184.92	0
1185.3	0
1185.69	0
1186.07	0
1186.46	0
1186.85	0
1187.23	0
1187.62	0
1188	0
1188.39	0
1188.77	0
1189.16	0
1189.54	0
1189.93	0
1190.31	0
1190.7	0
1191.08	0
1191.47	0
1191.85	0
1192.24	0
1192.62	0
1193.01	0
1193.39	0
1193.78	0
1194.16	0
1194.55	0
1194.93	0
1195.32	0
1195.7	0
1196.09	0
1196.47	0
1196.86	0
1197.24	0
1197.63	0
1198.01	0
1198.4	0
1198.78	0
1199.16	0
1199.55	0
1199.93	0
1200.32	0
1200.7	0
1201.09	0
1201.47	0
1201.86	0
1202.24	0
1202.63	0
1203.01	0
1203.39	0
1203.78	0
1204.16	0
1204.55	0
1204.93	0
1205.32	0
1205.7	0
1206.08	0
1206.47	0
1206.85	0
1207.24	0
1207.62	0
1208	0
1208.39	0
1208.77	0
1209.16	0
1209.54	0
1209.92	0
1210.31	0
1210.69	0
1211.08	0
1211.46	0
1211.84	0
1212.23	0
1212.61	0
1213	0
1213.38	0
1213.76	0
1214.15	0
1214.53	0
1214.91	0
1215.3	0
1215.68	0
1216.06	0
1216.45	0
1216.83	0
1217.22	0
1217.6	0
1217.98	0
1218.37	0
1218.75	0
1219.13	0
1219.52	0
1219.9	0
1220.28	0
1220.67	0
1221.05	0
1221.43	0
1221.82	0
1222.2	0
1222.58	0
1222.97	0
1223.35	0
1223.73	0
1224.11	0
1224.5	0
1224.88	0
1225.26	0
1225.65	0
1226.03	0
1226.41	0
1226.8	0
1227.18	0
1227.56	0
1227.94	0
1228.33	0
1228.71	0
1229.09	0
1229.47	0
1229.86	0
1230.24	0
1230.62	0
1231.01	0
1231.39	0
1231.77	0
1232.15	0
1232.54	0
1232.92	0
1233.3	0
1233.68	0
1234.07	0
1234.45	0
1234.83	0
1235.21	0
1235.6	0
1235.98	0
1236.36	0
1236.74	0
1237.12	0
1237.51	0
1237.89	0
1238.27	0
1238.65	0
1239.04	0
1239.42	0
1239.8	0
1240.18	0
1240.56	0
1240.95	0
1241.33	0
1241.71	0
1242.09	0
1242.47	0
1242.86	0
1243.24	0
1243.62	0
1244	0
1244.38	0
1244.77	0
1245.15	0
1245.53	0
1245.91	0
1246.29	0
1246.67	0
1247.06	0
1247.44	0
1247.82	0
1248.2	0
1248.58	0
1248.96	0
1249.34	0
1249.73	0
1250.11	0
1250.49	0
1250.87	0
1251.25	0
1251.63	0
1252.01	0
1252.4	0
1252.78	0
1253.16	0
1253.54	0
1253.92	0
1254.3	0
1254.68	0
1255.06	0
1255.45	0
1255.83	0
1256.21	0
1256.59	0
1256.97	0
1257.35	0
1257.73	0
1258.11	0
1258.49	0
1258.87	0
1259.26	0
1259.64	0
1260.02	0
1260.4	0
1260.78	0
1261.16	0
1261.54	0
1261.92	0
1262.3	0
1262.68	0
1263.06	0
1263.44	0
1263.82	0
1264.21	0
1264.59	0
1264.97	0
1265.35	0
1265.73	0
1266.11	0
1266.49	0
1266.87	0
1267.25	0
1267.63	0
1268.01	0
1268.39	0
1268.77	0
1269.15	0
1269.53	0
1269.91	0
1270.29	0
1270.67	0
1271.05	0
1271.43	0
1271.81	0
1272.19	0
1272.57	0
1272.95	0
1273.33	0
1273.71	0
1274.09	0
1274.47	0
1274.85	0
1275.23	0
1275.61	0
1275.99	0
1276.37	0
1276.75	0
1277.13	0
1277.51	0
1277.89	0
1278.27	0
1278.65	0
1279.03	0
1279.41	0
1279.79	0
1280.17	0
1280.55	0
1280.93	0
1281.31	0
1281.69	0
1282.07	0
1282.45	0
1282.82	0
1283.2	0
1283.58	0
1283.96	0
1284.34	0
1284.72	0
1285.1	0
1285.48	0
1285.86	0
1286.24	0
1286.62	0
1287	0
1287.38	0
1287.75	0
1288.13	0
1288.51	0
1288.89	0
1289.27	0
1289.65	0
1290.03	0
1290.41	0
1290.79	0
1291.17	0
1291.54	0
1291.92	0
1292.3	0
1292.68	0
1293.06	0
1293.44	0
1293.82	0
1294.2	0
1294.57	0
1294.95	0
1295.33	0
1295.71	0
1296.09	0
1296.47	0
1296.85	0
1297.22	0
1297.6	0
1297.98	0
1298.36	0
1298.74	0
1299.12	0
1299.5	0
1299.87	0
1300.25	0
1300.63	0
1301.01	0
1301.39	0
1301.77	0
1302.14	0
1302.52	0
1302.9	0
1303.28	0
1303.66	0
1304.03	0
1304.41	0
1304.79	0
1305.17	0
1305.55	0
1305.92	0
1306.3	0
1306.68	0
1307.06	0
1307.44	0
1307.81	0
1308.19	0
1308.57	0
1308.95	0
1309.32	0
1309.7	0
1310.08	0
1310.46	0
1310.84	0
1311.21	0
1311.59	0
1311.97	0
1312.35	0
1312.72	0
1313.1	0
1313.48	0
1313.86	0
1314.23	0
1314.61	0
1314.99	0
1315.37	0
1315.74	0
1316.12	0
1316.5	0
1316.87	0
1317.25	0
1317.63	0
1318.01	0
1318.38	0
1318.76	0
1319.14	0
1319.52	0
1319.89	0
1320.27	0
1320.65	0
1321.02	0
1321.4	0
1321.78	0
1322.15	0
1322.53	0
1322.91	0
1323.29	0
1323.66	0
1324.04	0
1324.42	0
1324.79	0
1325.17	0
1325.55	0
1325.92	0
1326.3	0
1326.68	0
1327.05	0
1327.43	0
1327.81	0
1328.18	0
1328.56	0
1328.94	0
1329.31	0
1329.69	0
1330.06	0
1330.44	0
1330.82	0
1331.19	0
1331.57	0
1331.95	0
1332.32	0
1332.7	0
1333.08	0
1333.45	0
1333.83	0
1334.2	0
1334.58	0
1334.96	0
1335.33	0
1335.71	0
1336.08	0
1336.46	0
1336.84	0
1337.21	0
1337.59	0
1337.96	0
1338.34	0
1338.72	0
1339.09	0
1339.47	0
1339.84	0
1340.22	0
1340.6	0
1340.97	0
1341.35	0
1341.72	0
1342.1	0
1342.47	0
1342.85	0
1343.23	0
1343.6	0
1343.98	0
1344.35	0
1344.73	0
1345.1	0
1345.48	0
1345.85	0
1346.23	0
1346.61	0
1346.98	0
1347.36	0
1347.73	0
1348.11	0
1348.48	0
1348.86	0
1349.23	0
1349.61	0
1349.98	0
1350.36	0
1350.73	0
1351.11	0
1351.48	0
1351.86	0
1352.23	0
1352.61	0
1352.98	0
1353.36	0
1353.73	0
1354.11	0
1354.48	0
1354.86	0
1355.23	0
1355.61	0
1355.98	0
1356.36	0
1356.73	0
1357.11	0
1357.48	0
1357.86	0
1358.23	0
1358.61	0
1358.98	0
1359.35	0
1359.73	0
1360.1	0
1360.48	0
1360.85	0
1361.23	0
1361.6	0
1361.98	0
1362.35	0
1362.72	0
1363.1	0
1363.47	0
1363.85	0
1364.22	0
1364.6	0
1364.97	0
1365.34	0
1365.72	0
1366.09	0
1366.47	0
1366.84	0
1367.22	0
1367.59	0
1367.96	0
1368.34	0
1368.71	0
1369.09	0
1369.46	-1
1369.83	-1
1370.21	-0.76
1370.58	-0.76
1370.96	-0.64
1371.33	0.68
1371.7	0.76
1372.08	0.68
1372.45	1
1372.82	0.96
1373.2	0.96
1373.57	1.16
1373.95	1
1374.32	0.68
1374.69	0.72
1375.07	0.4
1375.44	0.12
1375.81	0.12
1376.19	0.12
1376.56	0
1376.93	0
1377.31	0.32
1377.68	0.36
1378.05	0.4
1378.43	0.4
1378.8	0.4
1379.17	0.28
1379.55	0.32
1379.92	0.28
1380.29	0.28
1380.67	0.44
1381.04	0.24
1381.41	0.2
1381.79	0.2
1382.16	0.24
1382.53	0.08
1382.91	-0.76
1383.28	-0.72
1383.65	-0.72
1384.03	-0.6
1384.4	-0.44
1384.77	0.44
1385.14	0.36
1385.52	0.36
1385.89	0.32
1386.26	0.24
1386.64	0.2
1387.01	0.36
1387.38	0.36
1387.75	0.4
1388.13	0.36
1388.5	0.48
1388.87	0.32
1389.25	0.36
1389.62	0.2
1389.99	0.12
1390.36	1.44334e-17
1390.74	0.2
1391.11	0.52
1391.48	0.52
1391.85	0.56
1392.23	0.56
1392.6	0.52
1392.97	0.4
1393.34	0.4
1393.72	0.4
1394.09	0.4
1394.46	0.36
1394.83	0.32
1395.21	0.4
1395.58	0.4
1395.95	0.4
1396.32	0.76
1396.69	0.88
1397.07	1
1397.44	1.04
1397.81	1.04
1398.18	0.56
1398.55	0.48
1398.93	0.36
1399.3	0.32
1399.67	0.52
1400.04	0.64
1400.41	0.4
1400.79	0.32
1401.16	0.32
1401.53	0.16
1401.9	0.16
1402.27	0.16
1402.65	0.48
1403.02	0.6
1403.39	0.56
1403.76	0.04
1404.13	0.12
1404.51	0
1404.88	-0.04
1405.25	-0.04
1405.62	0.6
1405.99	0.76
1406.36	0.56
1406.74	0.72
1407.11	0.72
1407.48	0.64
1407.85	-0.8
1408.22	-0.52
1408.59	-0.64
1408.96	-0.52
1409.34	-0.56
1409.71	0.84
1410.08	0.88
1410.45	0.76
1410.82	1.12
1411.19	1
1411.56	0.8
1411.93	0.6
1412.31	1.04
1412.68	0.56
1413.05	0.56
1413.42	0.56
1413.79	0.52
1414.16	-0.12
1414.53	-0.12
1414.9	-0.32
1415.27	-0.16
1415.65	-0.08
1416.02	0.2
1416.39	0.24
1416.76	0.56
1417.13	0.56
1417.5	0.4
1417.87	0.4
1418.24	0.72
1418.61	0.64
1418.98	0.52
1419.35	0.56
1419.73	0.48
1420.1	0.12
1420.47	0.12
1420.84	0.16
1421.21	0.12
1421.58	0.6
1421.95	0.6
1422.32	0.72
1422.69	0.84
1423.06	0.96
1423.43	0.52
1423.8	0.64
1424.17	0.48
1424.54	0.28
1424.91	0.4
1425.28	0.36
1425.65	0.24
1426.02	0.48
1426.39	0.8
1426.76	5.77338e-17
1427.14	0.12
1427.51	0.24
1427.88	0.08
1428.25	-0.24
1428.62	0.36
1428.99	0.36
1429.36	0.28
1429.73	0.36
1430.1	0.52
1430.47	0.6
1430.84	0.56
1431.21	0.56
1431.58	0.44
1431.95	0.28
1432.32	-0.04
1432.69	0.08
1433.06	0.16
1433.43	0.64
1433.8	0.64
1434.17	1.24
1434.54	1.04
1434.91	0.96
1435.28	0.6
1435.64	0.6
1436.01	-0.4
1436.38	-0.12
1436.75	-0.16
1437.12	0.2
1437.49	0.28
1437.86	1.04
1438.23	1.12
1438.6	1.32
1438.97	0.84
1439.34	0.84
1439.71	0.76
1440.08	0.44
1440.45	0.36
1440.82	-0.28
1441.19	0.04
1441.56	0.04
1441.93	0.32
1442.3	0.6
1442.67	-0.4
1443.03	-0.68
1443.4	-0.56
1443.77	-0.68
1444.14	-1.08
1444.51	0.6
1444.88	0.56
1445.25	0.36
1445.62	0.16
1445.99	0.16
1446.36	0.08
1446.73	0.48
1447.09	0.52
1447.46	0.56
1447.83	1
1448.2	1
1448.57	0.4
1448.94	0.52
1449.31	0.48
1449.68	0.36
1450.05	0.4
1450.41	0.52
1450.78	-0.04
1451.15	-0.04
1451.52	-0.36
1451.89	-0.2
1452.26	-0.2
1452.63	0.44
1453	0.44
1453.36	0.44
1453.73	0.32
1454.1	0.48
1454.47	0.32
1454.84	0.36
1455.21	0.36
1455.57	0.08
1455.94	-0.08
1456.31	1.44334e-17
1456.68	0.04
1457.05	0.04
1457.42	0.6
1457.78	0.68
1458.15	0.76
1458.52	0.8
1458.89	0.92
1459.26	1.08
1459.63	1
1459.99	0.76
1460.36	0.68
1460.73	0.76
1461.1	0.24
1461.47	0.44
1461.83	0.72
1462.2	0.68
1462.57	0.48
1462.94	0.52
1463.31	0.32
1463.67	0.04
1464.04	0.04
1464.41	0.24
1464.78	0
1465.15	0.24
1465.51	0.4
1465.88	0.44
1466.25	0.24
1466.62	0.6
1466.98	0.36
1467.35	0.4
1467.72	0.36
1468.09	0.36
1468.46	0.2
1468.82	0.28
1469.19	0.24
1469.56	0.24
1469.93	0.24
1470.29	0.24
1470.66	0.16
1471.03	0.12
1471.4	0.32
1471.76	0.36
1472.13	0.36
1472.5	0.36
1472.86	0.28
1473.23	0.08
1473.6	0.28
1473.97	0.52
1474.33	0.52
1474.7	0.48
1475.07	0.68
1475.44	0.44
1475.8	0.12
1476.17	0.12
1476.54	0.12
1476.9	-0.08
1477.27	0.04
1477.64	0.44
1478	0.56
1478.37	0.72
1478.74	0.72
1479.11	0.6
1479.47	0.28
1479.84	0.16
1480.21	0.32
1480.57	0.32
1480.94	0.32
1481.31	0.68
1481.67	0.68
1482.04	0.36
1482.41	0.36
1482.77	0.56
1483.14	0.24
1483.51	0.72
1483.87	0.96
1484.24	0.96
1484.61	0.8
1484.97	0.76
1485.34	0.28
1485.71	-0.96
1486.07	-0.96
1486.44	-1
1486.81	-1
1487.17	-0.96
1487.54	0.28
1487.9	0.68
1488.27	0.92
1488.64	0.76
1489	0.8
1489.37	0.56
1489.74	0.28
1490.1	0.24
1490.47	0.4
1490.83	0.44
1491.2	0.44
1491.57	0.32
1491.93	0.12
1492.3	0.28
1492.66	0.2
1493.03	0.36
1493.4	0.36
1493.76	0.68
1494.13	0.52
1494.49	0.68
1494.86	0.52
1495.23	0.52
1495.59	0.48
1495.96	-0.92
1496.32	-1
1496.69	-0.72
1497.06	-0.72
1497.42	-1.56
1497.79	-0.12
1498.15	-0.24
1498.52	-0.52
1498.88	-0.28
1499.25	0.76
1499.62	0.32
1499.98	0.32
1500.35	0.32
1500.71	0.08
1501.08	-0.2
1501.44	0.2
1501.81	0.2
1502.17	0.2
1502.54	0.2
1502.9	0.16
1503.27	0.32
1503.64	0.32
1504	0.36
1504.37	1
1504.73	0.96
1505.1	0.84
1505.46	0.84
1505.83	1.12
1506.19	0.56
1506.56	0.64
1506.92	0.8
1507.29	0.88
1507.65	0.64
1508.02	0.84
1508.38	0.64
1508.75	0.64
1509.11	1
1509.48	0.92
1509.84	0.64
1510.21	0.64
1510.57	0.8
1510.94	0.52
1511.3	0.6
1511.67	0.6
1512.03	0.8
1512.4	0.6
1512.76	0.44
1513.13	-0.6
1513.49	-0.8
1513.85	-0.64
1514.22	-0.56
1514.58	-0.56
1514.95	0.8
1515.31	1
1515.68	0.88
1516.04	0.92
1516.41	0.92
1516.77	0.52
1517.14	0.52
1517.5	0.88
1517.86	0.64
1518.23	0.64
1518.59	0.8
1518.96	0.96
1519.32	0.6
1519.69	0.56
1520.05	0.56
1520.41	0.4
1520.78	0.44
1521.14	0.2
1521.51	0.24
1521.87	0.48
1522.24	0.48
1522.6	0.28
1522.96	0.64
1523.33	0.88
1523.69	0.64
1524.06	0.64
1524.42	0.64
1524.78	0.28
1525.15	0
1525.51	0.08
1525.88	0.08
1526.24	0.12
1526.6	0.12
1526.97	0.24
1527.33	0.28
1527.69	0.28
1528.06	0.48
1528.42	0.84
1528.79	1.16
1529.15	0.24
1529.51	0.24
1529.88	0.16
1530.24	-0.2
1530.6	-0.64
1530.97	0.16
1531.33	0.28
1531.69	0.24
1532.06	0.28
1532.42	0.64
1532.78	0.64
1533.15	0.52
1533.51	0.44
1533.87	0.44
1534.24	0.12
1534.6	0.2
1534.96	0.2
1535.33	0.16
1535.69	0.16
1536.05	0.32
1536.42	0.24
1536.78	0.28
1537.14	0.28
1537.51	0.52
1537.87	0.72
1538.23	0.76
1538.6	0.92
1538.96	1.04
1539.32	0.92
1539.68	0.68
1540.05	0.64
1540.41	0.48
1540.77	0.4
1541.14	0.6
1541.5	0.56
1541.86	1
1542.23	1.08
1542.59	1.04
1542.95	0.88
1543.31	0.84
1543.68	0.4
1544.04	0.72
1544.4	1.24
1544.76	1.04
1545.13	1.32
1545.49	1.56
1545.85	1.16
1546.21	0.8
1546.58	0.84
1546.94	0.6
1547.3	0.52
1547.66	0.48
1548.03	0.32
1548.39	0.6
1548.75	0.48
1549.11	0.4
1549.48	0.4
1549.84	0.4
1550.2	0.12
1550.56	0.12
1550.93	0.08
1551.29	0.32
1551.65	0.32
1552.01	0.52
1552.37	0.76
1552.74	1.2
1553.1	1.08
1553.46	1.32
1553.82	1.16
1554.18	0.96
1554.55	0.52
1554.91	0.88
1555.27	0.72
1555.63	1.08
1555.99	1.04
1556.36	1.04
1556.72	-1
1557.08	-1.08
1557.44	-1.48
1557.8	-1.44
1558.17	-1.32
1558.53	0.24
1558.89	0.36
1559.25	0.32
1559.61	0.28
1559.97	0.12
1560.34	0.28
1560.7	0.24
1561.06	0.48
1561.42	0.56
1561.78	0.56
1562.14	0
1562.5	0.24
1562.87	2.88669e-17
1563.23	-0.08
1563.59	-0.48
1563.95	-0.08
1564.31	-0.4
1564.67	-0.4
1565.03	-0.28
1565.4	0.52
1565.76	0.84
1566.12	0.92
1566.48	0.92
1566.84	0.8
1567.2	0.68
1567.56	0.56
1567.92	0.84
1568.29	1.04
1568.65	1.04
1569.01	0.84
1569.37	0.32
1569.73	-0.04
1570.09	-0.24
1570.45	0.08
1570.81	-2.66443e-17
1571.17	0.52
1571.53	0.52
1571.89	0.56
1572.26	0.4
1572.62	0.48
1572.98	0.28
1573.34	0.6
1573.7	0.6
1574.06	0.48
1574.42	0.52
1574.78	0.32
1575.14	0.04
1575.5	-3.33053e-18
1575.86	-0.72
1576.22	-0.76
1576.58	-0.44
1576.94	-0.48
1577.3	-0.04
1577.67	0.64
1578.03	0.6
1578.39	0.56
1578.75	0.6
1579.11	0.28
1579.47	0.56
1579.83	0.52
1580.19	0.44
1580.55	0.48
1580.91	0.4
1581.27	0.44
1581.63	0.48
1581.99	0.84
1582.35	0.76
1582.71	1
1583.07	0.72
1583.43	0.68
1583.79	0.52
1584.15	0.52
1584.51	0.32
1584.87	0.28
1585.23	0.28
1585.59	0.08
1585.95	0.52
1586.31	0.52
1586.67	0.64
1587.03	0.68
1587.39	0.76
1587.75	0.4
1588.11	0.68
1588.47	0.64
1588.83	0.88
1589.19	0.88
1589.55	1.16
1589.91	0.96
1590.27	0.92
1590.63	0.64
1590.99	0.92
1591.35	0.92
1591.71	0.8
1592.07	0.76
1592.42	0.76
1592.78	0.68
1593.14	0.48
1593.5	0.6
1593.86	0.84
1594.22	0.84
1594.58	0.76
1594.94	0.88
1595.3	0.72
1595.66	0.64
1596.02	0.68
1596.38	0.48
1596.74	0.24
1597.1	0.36
1597.46	0.32
1597.81	0.32
1598.17	0.32
1598.53	0.28
1598.89	0.16
1599.25	0.16
1599.61	0.56
1599.97	0.76
1600.33	1.12
1600.69	1.52
1601.05	1.4
1601.4	1.16
1601.76	0.72
1602.12	0.4
1602.48	1.05473e-17
1602.84	1.05473e-17
1603.2	-0.2
1603.56	0.32
1603.92	0.36
1604.28	0.44
1604.63	0.44
1604.99	0.48
1605.35	0.2
1605.71	0.12
1606.07	0.12
1606.43	0.4
1606.79	0.48
1607.14	0.48
1607.5	0.52
1607.86	0.92
1608.22	0.64
1608.58	0.72
1608.94	0.92
1609.29	0.92
1609.65	0.24
1610.01	0.32
1610.37	0.2
1610.73	2.10945e-17
1611.09	-0.04
1611.44	0.2
1611.8	0.2
1612.16	0.12
1612.52	0.24
1612.88	0.32
1613.24	0.28
1613.59	0.4
1613.95	0.72
1614.31	0.64
1614.67	0.68
1615.03	0.68
1615.38	0.88
1615.74	0.6
1616.1	0.76
1616.46	0.76
1616.82	0.88
1617.17	0.92
1617.53	0.88
1617.89	0.88
1618.25	0.76
1618.6	0.64
1618.96	0.2
1619.32	0.2
1619.68	0
1620.04	0
1620.39	-0.2
1620.75	-0.2
1621.11	0.12
1621.47	0.24
1621.82	0.24
1622.18	0.52
1622.54	0.72
1622.9	0.6
1623.25	-0.4
1623.61	-0.32
1623.97	-0.32
1624.33	-0.44
1624.68	-0.6
1625.04	0.28
1625.4	0.28
1625.75	-0.2
1626.11	-0.28
1626.47	-0.2
1626.83	0.08
1627.18	-2.88669e-17
1627.54	0.6
1627.9	0.84
1628.26	0.72
1628.61	0.56
1628.97	0.8
1629.33	0.6
1629.68	0.72
1630.04	0.84
1630.4	0.12
1630.75	0.2
1631.11	0.32
1631.47	-0.24
1631.83	-0.36
1632.18	0.24
1632.54	-0.08
1632.9	-0.2
1633.25	0
1633.61	0
1633.97	0.44
1634.32	0.72
1634.68	0.92
1635.04	0.92
1635.39	0.92
1635.75	0.56
1636.11	0.32
1636.46	0.36
1636.82	0.36
1637.18	0.4
1637.53	0.32
1637.89	0.36
1638.25	0.44
1638.6	0.48
1638.96	0.44
1639.31	0.44
1639.67	0.8
1640.03	0.52
1640.38	0.48
1640.74	0.48
1641.1	0.92
1641.45	0.52
1641.81	0.6
1642.16	1.24
1642.52	1.28
1642.88	0.84
1643.23	0.4
1643.59	0.28
1643.95	0.04
1644.3	0.12
1644.66	0.16
1645.01	0.56
1645.37	0.56
1645.73	0.64
1646.08	0.52
1646.44	1.04
1646.79	0.52
1647.15	0.52
1647.51	0.04
1647.86	0.04
1648.22	-0.32
1648.57	-0.6
1648.93	-0.44
1649.28	-0.44
1649.64	-0.44
1650	-0.6
1650.35	0.32
1650.71	0.16
1651.06	0.36
1651.42	0.68
1651.77	0.56
1652.13	0.64
1652.48	0.72
1652.84	0.76
1653.2	0.64
1653.55	1.12
1653.91	1.32
1654.26	1.24
1654.62	1
1654.97	0.8
1655.33	0.52
1655.68	0.12
1656.04	0.12
1656.39	0.12
1656.75	0.2
1657.1	0.08
1657.46	0.08
1657.81	0.36
1658.17	0.36
1658.52	0.28
1658.88	0.44
1659.23	0.92
1659.59	0.64
1659.94	0.64
1660.3	0.84
1660.65	0.72
1661.01	0.36
1661.36	0.36
1661.72	0.48
1662.07	0.44
1662.43	0.48
1662.78	0.36
1663.14	0.4
1663.49	0.4
1663.85	0.36
1664.2	0.28
1664.56	0.48
1664.91	-1.16
1665.27	-1.28
1665.62	-1.36
1665.98	-1.36
1666.33	-1.56
1666.69	0.4
1667.04	0.4
1667.39	0.36
1667.75	0.36
1668.1	0.64
1668.46	0.56
1668.81	0.76
1669.17	0.96
1669.52	0.96
1669.88	0.68
1670.23	0.6
1670.58	0.72
1670.94	0.52
1671.29	0.84
1671.65	1.16
1672	1.12
1672.36	0.92
1672.71	1.08
1673.06	0.8
1673.42	0.28
1673.77	0.12
1674.13	0.36
1674.48	0.2
1674.83	0.32
1675.19	0.6
1675.54	0.8
1675.9	0.64
1676.25	0.96
1676.6	0.88
1676.96	0.96
1677.31	0.92
1677.67	0.72
1678.02	0.92
1678.37	0.92
1678.73	0.84
1679.08	0.68
1679.43	1.64
1679.79	1.4
1680.14	1.6
1680.5	1.04
1680.85	1.48
1681.2	0.64
1681.56	1.08
1681.91	0.8
1682.26	1.4
1682.62	1.56
1682.97	1.56
1683.32	1.36
1683.68	1.92
1684.03	2.08
1684.38	1.72
1684.74	2.4
1685.09	2.08
1685.44	1.76
1685.8	1.76
1686.15	1.96
1686.5	1.32
1686.86	1.44
1687.21	1.04
1687.56	1.28
1687.92	1.56
1688.27	1.56
1688.62	1.52
1688.98	2.08
1689.33	1.64
1689.68	1.16
1690.03	1.68
1690.39	1.4
1690.74	1.76
1691.09	2.04
1691.45	1.76
1691.8	1.4
1692.15	1.48
1692.5	0.84
1692.86	0.52
1693.21	0.84
1693.56	0.64
1693.92	1.12
1694.27	0.44
1694.62	0.84
1694.97	1.04
1695.33	1
1695.68	0.88
1696.03	1.68
1696.38	1.4
1696.74	1.44
1697.09	2.36
1697.44	2.2
1697.79	2.8
1698.15	2.76
1698.5	2.6
1698.85	2.28
1699.2	2.36
1699.56	1.88
1699.91	2.48
1700.26	2.72
1700.61	3.16
1700.97	4.2
1701.32	4.28
1701.67	4.48
1702.02	5
1702.37	4.16
1702.73	3.24
1703.08	3.16
1703.43	2.56
1703.78	1.92
1704.13	1.92
1704.49	1.48
1704.84	2.04
1705.19	1.72
1705.54	1.84
1705.89	1.96
1706.25	2.96
1706.6	2.44
1706.95	2.52
1707.3	2.12
1707.65	2.64
1708.01	1.96
1708.36	1.76
1708.71	2.68
1709.06	3
1709.41	2.16
1709.76	2.2
1710.12	2.36
1710.47	1.6
1710.82	1.08
1711.17	1.44
1711.52	1.72
1711.87	1.88
1712.23	2.04
1712.58	2.32
1712.93	2.6
1713.28	2.12
1713.63	2.64
1713.98	2.8
1714.33	3
1714.69	2.92
1715.04	2.72
1715.39	2.24
1715.74	1.76
1716.09	1.28
1716.44	0.92
1716.79	0.92
1717.14	1
1717.5	0.92
1717.85	1.04
1718.2	1.28
1718.55	1.76
1718.9	1.6
1719.25	1.6
1719.6	1.76
1719.95	1.48
1720.3	1
1720.65	0.56
1721.01	1.4
1721.36	1.48
1721.71	1.28
1722.06	0.68
1722.41	0.76
1722.76	-0.08
1723.11	-0.44
1723.46	-0.48
1723.81	0.12
1724.16	0.36
1724.51	0.48
1724.86	0.52
1725.21	0.64
1725.56	0.76
1725.92	0.48
1726.27	0.36
1726.62	0.52
1726.97	0.68
1727.32	0.2
1727.67	0.8
1728.02	1.28
1728.37	1.52
1728.72	1.52
1729.07	2.16
1729.42	2.12
1729.77	2.12
1730.12	2.44
1730.47	3.24
1730.82	3.4
1731.17	4.36
1731.52	5.56
1731.87	5.6
1732.22	5.56
1732.57	5.96
1732.92	5.36
1733.27	4.28
1733.62	4.28
1733.97	3.72
1734.32	5
1734.67	6.08
1735.02	6.32
1735.37	7
1735.72	7.76
1736.07	8.48
1736.42	9.36
1736.77	11.08
1737.12	13.36
1737.47	14.08
1737.82	14.2
1738.17	13.64
1738.52	13.84
1738.87	13.72
1739.22	14.4
1739.57	15.84
1739.92	16.8
1740.27	18.2
1740.62	18.68
1740.97	20.32
1741.32	21.4
1741.67	23.48
1742.02	23.28
1742.37	24.24
1742.72	23.92
1743.06	23.68
1743.41	23.36
1743.76	24.72
1744.11	25.68
1744.46	27.12
1744.81	29.8
1745.16	31.88
1745.51	32.64
1745.86	33.2
1746.21	35.28
1746.56	33.12
1746.91	31.2
1747.26	32.8
1747.6	34.28
1747.95	34.6
1748.3	36.72
1748.65	39.76
1749	41.04
1749.35	40.72
1749.7	42.2
1750.05	43.28
1750.4	44.12
1750.75	44.2
1751.09	45.68
1751.44	46.2
1751.79	45.56
1752.14	46.8
1752.49	47.24
1752.84	47.04
1753.19	47.56
1753.54	49.6
1753.88	49.28
1754.23	49.88
1754.58	52
1754.93	50.84
1755.28	50.88
1755.63	50.4
1755.98	49.6
1756.32	48.36
1756.67	49.2
1757.02	48.44
1757.37	49
1757.72	49.32
1758.07	49.24
1758.42	49.16
1758.76	49.24
1759.11	49.08
1759.46	49.08
1759.81	47.64
1760.16	47.04
1760.5	46.84
1760.85	45.72
1761.2	45.6
1761.55	45.92
1761.9	46.36
1762.25	47.24
1762.59	46.2
1762.94	45.4
1763.29	45.48
1763.64	43.52
1763.99	41.24
1764.33	42.36
1764.68	42.28
1765.03	41.84
1765.38	42.68
1765.73	41.72
1766.07	40.8
1766.42	41.08
1766.77	40.12
1767.12	39.88
1767.46	39.68
1767.81	39.2
1768.16	37.32
1768.51	36.64
1768.85	34.8
1769.2	36.52
1769.55	35.36
1769.9	35.52
1770.25	35.36
1770.59	35.8
1770.94	33
1771.29	33
1771.64	32.44
1771.98	31.8
1772.33	30.2
1772.68	27.2
1773.02	26.04
1773.37	25.12
1773.72	24.04
1774.07	23.96
1774.41	25.64
1774.76	24.88
1775.11	24.8
1775.46	25.36
1775.8	24.52
1776.15	25.56
1776.5	24.16
1776.84	23.44
1777.19	23.4
1777.54	23.04
1777.89	22.2
1778.23	23.52
1778.58	22.68
1778.93	22.8
1779.27	23.08
1779.62	23.04
1779.97	23.48
1780.31	23.96
1780.66	22.8
1781.01	24.28
1781.35	24.56
1781.7	24.56
1782.05	25.12
1782.39	26.2
1782.74	26.76
1783.09	29.24
1783.43	30.32
1783.78	30.68
1784.13	31.04
1784.47	29.72
1784.82	30.28
1785.17	34
1785.51	40.08
1785.86	44.72
1786.21	50.32
1786.55	51.6
1786.9	51.68
1787.25	48.76
1787.59	46.72
1787.94	45.44
1788.29	45.56
1788.63	47.04
1788.98	48.24
1789.32	50.32
1789.67	51.96
1790.02	56.84
1790.36	66.48
1790.71	79.88
1791.06	88.2
1791.4	95.52
1791.75	102.48
1792.09	104.88
1792.44	104.24
1792.79	102.96
1793.13	105.64
1793.48	103.6
1793.82	98.04
1794.17	93.12
1794.52	94.96
1794.86	92
1795.21	90.76
1795.55	86.56
1795.9	94.64
1796.24	125.2
1796.59	146.52
1796.94	163.08
1797.28	180.48
1797.63	181.84
1797.97	164
1798.32	156.52
1798.66	160.84
1799.01	166.92
1799.36	167.48
1799.7	176.08
1800.05	183.4
1800.39	173.4
1800.74	193.24
1801.08	227
1801.43	234.28
1801.77	236.6
1802.12	252.2
1802.46	246.68
1802.81	232.28
1803.15	224.6
1803.5	224.8
1803.85	214.04
1804.19	208.12
1804.54	221.96
1804.88	231.76
1805.23	236.28
1805.57	270.72
1805.92	303.2
1806.26	305.48
1806.61	307.92
1806.95	336.2
1807.3	365.24
1807.64	370.28
1807.99	375.68
1808.33	380.84
1808.68	358.24
1809.02	350.72
1809.37	372.52
1809.71	389.12
1810.06	406.24
1810.4	413.96
1810.75	389.48
1811.09	393.36
1811.43	432.68
1811.78	473.96
1812.12	525.52
1812.47	557.84
1812.81	541.28
1813.16	516.16
1813.5	491.04
1813.85	465.16
1814.19	457.96
1814.54	445.2
1814.88	420.36
1815.23	403.8
1815.57	375.36
1815.91	337.44
1816.26	356.64
1816.6	414.8
1816.95	448.8
1817.29	501.8
1817.64	575.36
1817.98	618.12
1818.32	635.6
1818.67	661
1819.01	672.44
1819.36	669.88
1819.7	635.4
1820.05	599.72
1820.39	602.56
1820.73	595.76
1821.08	579.64
1821.42	586.24
1821.77	574.32
1822.11	518.32
1822.45	505.12
1822.8	511.4
1823.14	480.56
1823.49	491.16
1823.83	586.2
1824.17	646.64
1824.52	680.6
1824.86	739.12
1825.2	745.32
1825.55	685.16
1825.89	626.12
1826.24	581.24
1826.58	606.36
1826.92	648.68
1827.27	668.6
1827.61	708.84
1827.95	739.76
1828.3	687.72
1828.64	634.92
1828.98	598.4
1829.33	539.12
1829.67	568.04
1830.02	630.92
1830.36	663.24
1830.7	737.52
1831.05	820.72
1831.39	801.6
1831.73	769.6
1832.08	773.64
1832.42	725.84
1832.76	687.04
1833.1	677
1833.45	644.52
1833.79	609.04
1834.13	610.16
1834.48	606.76
1834.82	607.32
1835.16	629
1835.51	632.84
1835.85	620.68
1836.19	612.36
1836.54	570.96
1836.88	527.24
1837.22	492.72
1837.56	458.56
1837.91	454.44
1838.25	511
1838.59	567.64
1838.94	608.16
1839.28	638.52
1839.62	626.36
1839.96	591.64
1840.31	548.12
1840.65	506.28
1840.99	485.04
1841.34	553.44
1841.68	608.12
1842.02	648.28
1842.36	706.12
1842.71	723.32
1843.05	636.24
1843.39	595.52
1843.73	627.76
1844.08	652.56
1844.42	713.84
1844.76	800.12
1845.1	809.24
1845.45	755.12
1845.79	731.08
1846.13	703.96
1846.47	668.28
1846.81	646.68
1847.16	637.08
1847.5	639.64
1847.84	667.28
1848.18	692.08
1848.53	711.48
1848.87	735.16
1849.21	725.12
1849.55	677.76
1849.89	645.36
1850.24	623.52
1850.58	599.36
1850.92	584.24
1851.26	573.12
1851.6	561.92
1851.95	554.2
1852.29	552.24
1852.63	534.84
1852.97	522.64
1853.31	501.04
1853.66	473.92
1854	463.72
1854.34	457.56
1854.68	474.6
1855.02	496.04
1855.36	518.28
1855.71	511.08
1856.05	512.24
1856.39	486.16
1856.73	455.12
1857.07	439.96
1857.41	432.12
1857.76	422.76
1858.1	423.16
1858.44	412.12
1858.78	399.88
1859.12	389.04
1859.46	370.2
1859.8	341.2
1860.15	323.48
1860.49	320.4
1860.83	342.96
1861.17	369
1861.51	376.32
1861.85	385
1862.19	374
1862.53	341.72
1862.88	323.76
1863.22	322.2
1863.56	315
1863.9	311.32
1864.24	316.12
1864.58	299.72
1864.92	287.88
1865.26	288.2
1865.6	279.24
1865.94	257
1866.29	244.8
1866.63	230.08
1866.97	214.28
1867.31	199.76
1867.65	192.2
1867.99	193.44
1868.33	188.36
1868.67	177.72
1869.01	174.64
1869.35	181.6
1869.69	196.08
1870.03	213.08
1870.37	234.44
1870.72	252.44
1871.06	245.56
1871.4	219.6
1871.74	196.4
1872.08	173.32
1872.42	168.28
1872.76	178.16
1873.1	185.56
1873.44	187.16
1873.78	184.76
1874.12	162.88
1874.46	140.32
1874.8	143.96
1875.14	156.76
1875.48	164.04
1875.82	172.88
1876.16	180.04
1876.5	173.68
1876.84	162.6
1877.18	156.64
1877.52	149.92
1877.86	136.48
1878.2	119.68
1878.54	105.44
1878.88	97.4
1879.22	89.8
1879.56	84.88
1879.9	79.72
1880.24	76.72
1880.58	74.48
1880.92	78.72
1881.26	79.8
1881.6	75.72
1881.94	73.44
1882.28	68.44
1882.62	64.2
1882.96	72.28
1883.3	83.96
1883.64	87.04
1883.98	89.64
1884.32	86.92
1884.66	71.2
1885	57.04
1885.34	51.24
1885.68	47.72
1886.02	43.36
1886.36	43.2
1886.7	40.64
1887.04	37
1887.38	33.24
1887.72	30.44
1888.06	25.36
1888.39	24.6
1888.73	25.44
1889.07	30.84
1889.41	38.2
1889.75	42.64
1890.09	53.28
1890.43	62.96
1890.77	62.44
1891.11	56.76
1891.45	52.92
1891.79	41
1892.13	28.8
1892.47	20.68
1892.8	17.4
1893.14	16.72
1893.48	16.88
1893.82	19.6
1894.16	21.04
1894.5	21.92
1894.84	20.08
1895.18	18.48
1895.52	14.8
1895.86	12.16
1896.19	11.4
1896.53	13.28
1896.87	14.16
1897.21	14.88
1897.55	15.44
1897.89	15.92
1898.23	20.88
1898.57	23.4
1898.9	22
1899.24	22.48
1899.58	21.28
1899.92	15.56
1900.26	11.84
1900.6	13.32
1900.94	13.68
1901.27	13.72
1901.61	15.52
1901.95	16.72
1902.29	17.56
1902.63	18.36
1902.97	20.84
1903.3	21.84
1903.64	23
1903.98	22.2
1904.32	23.12
1904.66	21.6
1905	21.48
1905.33	22.36
1905.67	26.36
1906.01	26.8
1906.35	29.36
1906.69	30.12
1907.02	30.44
1907.36	29.28
1907.7	29.92
1908.04	28.84
1908.38	29.36
1908.71	29.8
1909.05	30.48
1909.39	31.08
1909.73	31.64
1910.07	29.92
1910.4	28.68
1910.74	28.92
1911.08	29.64
1911.42	31.52
1911.76	34.16
1912.09	36.6
1912.43	36.84
1912.77	37.16
1913.11	39.12
1913.44	39.6
1913.78	40.28
1914.12	40.96
1914.46	41.6
1914.79	42.48
1915.13	44.68
1915.47	44.96
1915.81	45.28
1916.14	47.48
1916.48	46.8
1916.82	47.56
1917.16	49.8
1917.49	51.96
1917.83	52.96
1918.17	54.52
1918.5	53.04
1918.84	53.56
1919.18	53.48
1919.52	54.4
1919.85	53.6
1920.19	55.08
1920.53	55.76
1920.87	56.84
1921.2	55.8
1921.54	57.92
1921.88	60.68
1922.21	60.2
1922.55	61.72
1922.89	65.44
1923.22	66.36
1923.56	66.24
1923.9	67.6
1924.23	67.2
1924.57	64.36
1924.91	65.32
1925.25	65.88
1925.58	67.12
1925.92	68.08
1926.26	71.76
1926.59	71.68
1926.93	72.44
1927.27	73.44
1927.6	75.6
1927.94	73.84
1928.28	75.08
1928.61	75.68
1928.95	78.52
1929.29	77.96
1929.62	80.92
1929.96	80.68
1930.29	81.76
1930.63	82.68
1930.97	84.16
1931.3	85
1931.64	87.24
1931.98	89.16
1932.31	86.84
1932.65	88.36
1932.99	87.16
1933.32	87.36
1933.66	87.6
1933.99	89.76
1934.33	90.68
1934.67	93.48
1935	96.32
1935.34	98.12
1935.67	100.4
1936.01	100.36
1936.35	101.28
1936.68	99.92
1937.02	99.12
1937.35	98.48
1937.69	98.68
1938.03	98.08
1938.36	96.48
1938.7	97.68
1939.03	96.72
1939.37	97.48
1939.7	98.52
1940.04	100.64
1940.38	99.96
1940.71	100.64
1941.05	100.24
1941.38	100.08
1941.72	100.92
1942.05	101.76
1942.39	101.72
1942.73	102.4
1943.06	104.2
1943.4	102.36
1943.73	101.28
1944.07	101.64
1944.4	100
1944.74	98.12
1945.07	99.12
1945.41	98.88
1945.74	97.72
1946.08	99.28
1946.42	98.92
1946.75	97.52
1947.09	96.44
1947.42	98.44
1947.76	97.72
1948.09	97.24
1948.43	97.84
1948.76	97.96
1949.1	94.96
1949.43	95.76
1949.77	94.76
1950.1	93.48
1950.44	92.48
1950.77	92.96
1951.11	90.08
1951.44	89.08
1951.78	88.04
1952.11	88.32
1952.45	86.48
1952.78	85.56
1953.12	85.6
1953.45	86.64
1953.79	84.32
1954.12	85.6
1954.46	84.68
1954.79	83.4
1955.12	82.56
1955.46	82.68
1955.79	81.16
1956.13	79.08
1956.46	78.6
1956.8	75.56
1957.13	74.28
1957.47	73
1957.8	75.12
1958.14	72.32
1958.47	71.64
1958.8	71.64
1959.14	71.32
1959.47	68.28
1959.81	69.4
1960.14	69.72
1960.48	68.32
1960.81	65.84
1961.14	64.76
1961.48	63.6
1961.81	60.28
1962.15	58.56
1962.48	57.76
1962.82	56.44
1963.15	54.92
1963.48	55.52
1963.82	54.8
1964.15	53
1964.49	52.72
1964.82	50.96
1965.15	49.64
1965.49	48.24
1965.82	46.68
1966.16	46.24
1966.49	45
1966.82	44.36
1967.16	42.24
1967.49	41.68
1967.83	39.72
1968.16	37.44
1968.49	36.28
1968.83	34.68
1969.16	32.48
1969.49	30.52
1969.83	29.24
1970.16	26.72
1970.49	27.16
1970.83	27.88
1971.16	28.12
1971.5	26.8
1971.83	25.28
1972.16	22.6
1972.5	21.04
1972.83	18.24
1973.16	18.8
1973.5	20.08
1973.83	20.6
1974.16	17.92
1974.5	17.32
1974.83	16.44
1975.16	13
1975.5	12.12
1975.83	13.52
1976.16	13.8
1976.49	12.76
1976.83	11.96
1977.16	10.64
1977.49	9.04
1977.83	6.88
1978.16	6.2
1978.49	6.52
1978.83	6.28
1979.16	5.52
1979.49	4.96
1979.83	4.28
1980.16	4.12
1980.49	3.16
1980.82	2.6
1981.16	2.96
1981.49	2.4
1981.82	1.92
1982.15	1.8
1982.49	1.64
1982.82	1.24
1983.15	1.24
1983.49	1
1983.82	0.76
1984.15	0.72
1984.48	0.72
1984.82	0.44
1985.15	0.48
1985.48	0.64
1985.81	0.56
1986.15	0.64
1986.48	0.84
1986.81	0.76
1987.14	0.48
1987.48	0.4
1987.81	0.28
1988.14	0.08
1988.47	0.12
1988.81	0.08
1989.14	0.24
1989.47	0.28
1989.8	0.56
1990.13	0.84
1990.47	0.88
1990.8	0.96
1991.13	1
1991.46	0.8
1991.79	0.36
1992.13	-0.36
1992.46	-0.6
1992.79	0.04
1993.12	-0.04
1993.45	-0.4
1993.79	0.6
1994.12	1.2
1994.45	0.48
1994.78	0.48
1995.11	1.52
1995.45	1.6
1995.78	1.12
1996.11	1.36
1996.44	2.12
1996.77	1.8
1997.1	1.8
1997.44	1.88
1997.77	1.72
1998.1	1.32
1998.43	1.08
1998.76	1.32
1999.09	1.84
1999.43	1.6
1999.76	2.24
2000.09	2.88
2000.42	2.64
2000.75	1.96
2001.08	2.92
2001.41	3.36
2001.75	3.28
2002.08	4.2
2002.41	5.6
2002.74	6.12
2003.07	6.64
2003.4	7.72
2003.73	8.52
2004.06	8.6
2004.4	9.64
2004.73	8.72
2005.06	9.28
2005.39	10.32
2005.72	10.04
2006.05	9.28
2006.38	11.76
2006.71	12.2
2007.04	11.84
2007.37	13.24
2007.71	15.84
2008.04	15.32
2008.37	15.64
2008.7	16.76
2009.03	17.96
2009.36	16.12
2009.69	18
2010.02	18.8
2010.35	19.76
2010.68	19.96
2011.01	20.64
2011.34	19.48
2011.67	20
2012.01	17.76
2012.34	16.84
2012.67	16.04
2013	17.68
2013.33	16.76
2013.66	18.28
2013.99	18.44
2014.32	19.96
2014.65	18.04
2014.98	19.24
2015.31	18.76
2015.64	20.36
2015.97	20.4
2016.3	21.72
2016.63	20.8
2016.96	20.84
2017.29	18.4
2017.62	17.96
2017.95	16.2
2018.28	15
2018.61	13.36
2018.94	14.32
2019.27	15.36
2019.6	16.28
2019.93	17.08
2020.26	17.56
2020.59	17.56
2020.92	16.6
2021.25	14.28
2021.58	14.52
2021.91	13.84
2022.24	12.76
2022.57	11.4
2022.9	12.72
2023.23	12.24
2023.56	13.16
2023.89	12.88
2024.22	13.4
2024.55	11.68
2024.88	10
2025.21	9.72
2025.54	9.8
2025.87	9.36
2026.2	9.68
2026.53	9.96
2026.86	8.96
2027.19	9.32
2027.52	8.48
2027.85	7.92
2028.18	6.72
2028.51	5.8
2028.84	4.36
2029.16	3.88
2029.49	3.92
2029.82	4.28
2030.15	5.08
2030.48	4.08
2030.81	3.84
2031.14	3.64
2031.47	3.52
2031.8	2.64
2032.13	3.04
2032.46	2.64
2032.79	2
2033.12	1.84
2033.44	1.64
2033.77	1.88
2034.1	2.12
2034.43	2.4
2034.76	1.96
2035.09	1.88
2035.42	1.92
2035.75	1.84
2036.08	1.56
2036.41	2.16
2036.73	2.16
2037.06	1.68
2037.39	1.28
2037.72	1.36
2038.05	0.92
2038.38	0.92
2038.71	1.04
2039.04	0.36
2039.36	0.24
2039.69	0.04
2040.02	-0.56
2040.35	-0.92
2040.68	-0.16
2041.01	0.28
2041.34	0.2
2041.66	0.6
2041.99	0.68
2042.32	0.88
2042.65	0.36
2042.98	0.56
2043.31	0.52
2043.63	0.56
2043.96	0.56
2044.29	0.72
2044.62	0.6
2044.95	0.64
2045.28	0.56
2045.6	0.32
2045.93	0.28
2046.26	0.44
2046.59	0.4
2046.92	0.36
2047.24	0.76
2047.57	0.68
2047.9	0.52
2048.23	0.56
2048.56	1
2048.88	0.56
2049.21	0.64
2049.54	0.8
2049.87	0.96
2050.2	0.68
2050.52	0.76
2050.85	0.64
2051.18	0.96
2051.51	0.76
2051.83	0.8
2052.16	0.72
2052.49	0.88
2052.82	0.4
2053.15	0.36
2053.47	0.6
2053.8	1.08
2054.13	1
2054.46	1
2054.78	1.08
2055.11	0.88
2055.44	0.48
2055.77	0.48
2056.09	0.72
2056.42	0.8
2056.75	0.64
2057.08	0.72
2057.4	0.6
2057.73	0.36
2058.06	0.48
2058.38	0.4
2058.71	0.52
2059.04	1.16
2059.37	1.24
2059.69	1
2060.02	1.52
2060.35	1.36
2060.67	0.84
2061	1.16
2061.33	1.52
2061.66	1
2061.98	1.04
2062.31	1.28
2062.64	1.48
2062.96	1.24
2063.29	1.28
2063.62	1.24
2063.94	1.28
2064.27	0.92
2064.6	0
2064.92	0.12
2065.25	0.32
2065.58	2.10945e-17
2065.91	-0.24
2066.23	0.56
2066.56	1.24
2066.89	1.24
2067.21	1.6
2067.54	1.76
2067.87	1.92
2068.19	1.68
2068.52	2.04
2068.84	2.2
2069.17	2.6
2069.5	2.52
2069.82	1.8
2070.15	1.28
2070.48	1.16
2070.8	0.72
2071.13	0.64
2071.46	0.88
2071.78	1
2072.11	0.52
2072.43	0.68
2072.76	0.76
2073.09	1.24
2073.41	1.32
2073.74	1.64
2074.07	1.52
2074.39	1.56
2074.72	1.08
2075.04	0.84
2075.37	0.64
2075.7	0.72
2076.02	1
2076.35	1.04
2076.67	1.04
2077	1.2
2077.33	1.2
2077.65	0.84
2077.98	1.16
2078.3	1.24
2078.63	1.16
2078.95	0.92
2079.28	1.12
2079.61	0.12
2079.93	-0.08
2080.26	0.12
2080.58	0.48
2080.91	0.28
2081.23	1.4
2081.56	2
2081.89	1.6
2082.21	1.36
2082.54	1.32
2082.86	0.84
2083.19	0.4
2083.51	0.4
2083.84	0.6
2084.16	0.6
2084.49	1.32
2084.81	1.16
2085.14	1.24
2085.46	1.04
2085.79	1.16
2086.12	0.32
2086.44	0.44
2086.77	0.36
2087.09	0.24
2087.42	0.12
2087.74	0.12
2088.07	0
2088.39	0.32
2088.72	0.88
2089.04	1.04
2089.37	1.04
2089.69	1.52
2090.02	1.2
2090.34	0.48
2090.67	0.64
2090.99	-1.4
2091.32	-1.88
2091.64	-1.88
2091.97	-1.28
2092.29	-1.24
2092.62	1.04
2092.94	1.28
2093.26	1.68
2093.59	1.24
2093.91	-0.28
2094.24	-0.4
2094.56	-0.16
2094.89	-0.28
2095.21	-0.28
2095.54	1.12
2095.86	1.32
2096.19	1.04
2096.51	1
2096.84	1.2
2097.16	1.04
2097.48	1.08
2097.81	1.44
2098.13	1.36
2098.46	1.2
2098.78	1.84
2099.11	1.48
2099.43	1.08
2099.75	1.6
2100.08	1.56
2100.4	1.08
2100.73	1.4
2101.05	1.52
2101.38	0.84
2101.7	1.16
2102.02	1.12
2102.35	0.92
2102.67	0.76
2103	0.84
2103.32	0.52
2103.64	0.32
2103.97	0.52
2104.29	0.56
2104.62	0.8
2104.94	0.96
2105.26	0.36
2105.59	0.04
2105.91	-0.04
2106.23	-0.12
2106.56	-0.24
2106.88	0.48
2107.21	0.48
2107.53	0.72
2107.85	0.68
2108.18	0.8
2108.5	0.68
2108.82	0.68
2109.15	0.76
2109.47	1.12
2109.79	0.96
2110.12	1.16
2110.44	1.16
2110.76	0.88
2111.09	0.56
2111.41	0.76
2111.73	0.76
2112.06	0.88
2112.38	0.96
2112.7	0.16
2113.03	0.2
2113.35	1.33221e-17
2113.67	0.2
2114	0.32
2114.32	0.96
2114.64	0.76
2114.97	0.76
2115.29	0.64
2115.61	0.52
2115.94	0.44
2116.26	0.6
2116.58	0.92
2116.91	0.16
2117.23	0.32
2117.55	1.04
2117.87	1.4
2118.2	1.12
2118.52	1.72
2118.84	1.8
2119.17	1.16
2119.49	0.84
2119.81	0.88
2120.13	0.92
2120.46	0.64
2120.78	-0.16
2121.1	-0.32
2121.42	-0.4
2121.75	-0.48
2122.07	-0.52
2122.39	0.24
2122.72	0.16
2123.04	0.52
2123.36	0.52
2123.68	0.4
2124.01	0.44
2124.33	0.44
2124.65	0.08
2124.97	0.32
2125.29	0.6
2125.62	0.52
2125.94	0.56
2126.26	0.56
2126.58	0.44
2126.91	-0.56
2127.23	-0.56
2127.55	-0.6
2127.87	-0.32
2128.2	-0.4
2128.52	0.4
2128.84	0.44
2129.16	0.48
2129.48	0.48
2129.81	0.64
2130.13	0.68
2130.45	0.84
2130.77	1.08
2131.09	0.92
2131.42	1.12
2131.74	1.08
2132.06	1.04
2132.38	0.76
2132.7	0.8
2133.02	0.4
2133.35	0.64
2133.67	0.88
2133.99	1
2134.31	0.44
2134.63	0.52
2134.96	0.24
2135.28	0.04
2135.6	-0.08
2135.92	0.36
2136.24	0.4
2136.56	0.6
2136.88	0.76
2137.21	0.76
2137.53	0.88
2137.85	1.08
2138.17	0.32
2138.49	-0.04
2138.81	0.08
2139.13	0.16
2139.46	0.04
2139.78	0.72
2140.1	0.84
2140.42	0.8
2140.74	0.56
2141.06	0.4
2141.38	0.24
2141.7	0.12
2142.03	0.08
2142.35	0.32
2142.67	0.48
2142.99	0.92
2143.31	1.28
2143.63	1.24
2143.95	1.08
2144.27	1.48
2144.59	1.04
2144.91	0.68
2145.24	0.72
2145.56	0.68
2145.88	0.48
2146.2	0.88
2146.52	1
2146.84	1.08
2147.16	1.04
2147.48	0.96
2147.8	0.92
2148.12	0.8
2148.44	0.88
2148.76	1.12
2149.08	1.12
2149.41	0.84
2149.73	0.84
2150.05	0.88
2150.37	0.64
2150.69	0.64
2151.01	0.56
2151.33	0.56
2151.65	0.6
2151.97	0.64
2152.29	0.32
2152.61	0.12
2152.93	0.16
2153.25	0.36
2153.57	0.48
2153.89	0.56
2154.21	0.36
2154.53	0.32
2154.85	-0.16
2155.17	2.88669e-17
2155.49	0.08
2155.81	0.68
2156.13	0.88
2156.45	0.88
2156.77	0.6
2157.09	0.76
2157.41	0.56
2157.73	0.44
2158.05	0.52
2158.37	0.48
2158.69	0.32
2159.01	0.64
2159.33	0.64
2159.65	0.56
2159.97	0.6
2160.29	0.52
2160.61	0.24
2160.93	0.16
2161.25	0.32
2161.57	0.4
2161.89	0.32
2162.21	0.28
2162.53	0.32
2162.85	-0.44
2163.17	-0.56
2163.49	-0.52
2163.81	-0.36
2164.13	-0.28
2164.45	0.04
2164.77	0.24
2165.08	0.32
2165.4	0.44
2165.72	0.32
2166.04	0.64
2166.36	0.44
2166.68	0.32
2167	0.04
2167.32	0.24
2167.64	0.44
2167.96	0.44
2168.28	0.8
2168.6	0.8
2168.92	0.6
2169.24	0.36
2169.55	0.44
2169.87	0.08
2170.19	0.08
2170.51	0.12
2170.83	0.32
2171.15	0.4
2171.47	0.84
2171.79	1.16
2172.11	1.44
2172.43	1.84
2172.74	1.84
2173.06	1.4
2173.38	1.08
2173.7	0.92
2174.02	0.84
2174.34	0.8
2174.66	1.08
2174.98	1.6
2175.29	1.56
2175.61	1.12
2175.93	1.68
2176.25	1.4
2176.57	0.92
2176.89	1
2177.21	1
2177.52	0.32
2177.84	0.72
2178.16	0.8
2178.48	0.64
2178.8	0.64
2179.12	0.72
2179.43	0.48
2179.75	-0.56
2180.07	-0.6
2180.39	-0.64
2180.71	-0.72
2181.03	-0.76
2181.34	0.16
2181.66	0.6
2181.98	0.56
2182.3	0.72
2182.62	0.6
2182.93	0.52
2183.25	0.2
2183.57	0.24
2183.89	0.08
2184.21	0.12
2184.52	0.2
2184.84	0.08
2185.16	0.08
2185.48	0.52
2185.8	0.48
2186.11	0.56
2186.43	0.92
2186.75	1
2187.07	0.4
2187.39	-0.4
2187.7	-0.48
2188.02	-1.24
2188.34	-1.32
2188.66	-0.84
2188.97	-0.04
2189.29	0.28
2189.61	0.8
2189.93	1.16
2190.24	1.08
2190.56	1.28
2190.88	0.96
2191.2	1.16
2191.51	0.88
2191.83	0.96
2192.15	0.88
2192.47	0.88
2192.78	0.68
2193.1	0.88
2193.42	0.8
2193.74	0.72
2194.05	0.72
2194.37	0.8
2194.69	0.48
2195	0.24
2195.32	0.2
2195.64	0.2
2195.96	0.12
2196.27	0.12
2196.59	-0.36
2196.91	-0.36
2197.22	-0.36
2197.54	-0.44
2197.86	-0.32
2198.18	0.24
2198.49	0.8
2198.81	1.04
2199.13	1
2199.44	0.88
2199.76	0.96
2200.08	0.56
2200.39	0.32
2200.71	0.4
2201.03	0.4
2201.34	0.52
2201.66	0.6
2201.98	0.64
2202.29	0.76
2202.61	0.96
2202.93	0.8
2203.24	0.56
2203.56	0.76
2203.88	0.8
2204.19	0.6
2204.51	0.52
2204.83	0.52
2205.14	0.64
2205.46	0.84
2205.78	0.88
2206.09	1.08
2206.41	0.92
2206.72	0.56
2207.04	0.4
2207.36	0.08
2207.67	0.04
2207.99	0.36
2208.31	0.36
2208.62	0.08
2208.94	0.48
2209.25	0.4
2209.57	0.24
2209.89	0.32
2210.2	0.32
2210.52	0.28
2210.83	0.24
2211.15	0.48
2211.47	0.4
2211.78	0.4
2212.1	-0.08
2212.41	0.04
2212.73	0.28
2213.05	0.36
2213.36	0.4
2213.68	1.04
2213.99	0.88
2214.31	0.4
2214.62	0.64
2214.94	0.6
2215.26	0.36
2215.57	0.44
2215.89	0.44
2216.2	0.2
2216.52	0.36
2216.83	0.36
2217.15	0.48
2217.46	0.8
2217.78	0.72
2218.1	0.4
2218.41	0.4
2218.73	0.44
2219.04	0.24
2219.36	0.68
2219.67	0.84
2219.99	0.84
2220.3	0.56
2220.62	0.6
2220.93	0.72
2221.25	0.96
2221.56	1.28
2221.88	1.48
2222.19	1.36
2222.51	0.8
2222.82	-0.68
2223.14	-0.88
2223.45	-1.08
2223.77	-1.12
2224.08	-0.84
2224.4	0.4
2224.71	0.36
2225.03	0.36
2225.34	0.36
2225.66	-1.32
2225.97	-1.08
2226.29	-0.84
2226.6	-0.68
2226.92	-0.52
2227.23	1.08
2227.55	0.96
2227.86	0.72
2228.18	0.56
2228.49	0.4
2228.81	0.96
2229.12	0.84
2229.44	0.88
2229.75	1.04
2230.07	1.76
2230.38	1
2230.69	1.32
2231.01	1.44
2231.32	1.44
2231.64	0.72
2231.95	0.84
2232.27	0.64
2232.58	0.4
2232.9	0.32
2233.21	0.32
2233.52	0.2
2233.84	0.16
2234.15	0.56
2234.47	0.52
2234.78	0.68
2235.1	0.76
2235.41	0.68
2235.72	0.28
2236.04	0.76
2236.35	1.08
2236.67	0.4
2236.98	0.56
2237.29	0.56
2237.61	0.52
2237.92	0.24
2238.24	0.84
2238.55	0.68
2238.86	1.04
2239.18	0.56
2239.49	-0.44
2239.8	-0.36
2240.12	-0.36
2240.43	-0.4
2240.75	-0.32
2241.06	0.52
2241.37	0.48
2241.69	0.6
2242	0.36
2242.31	0.44
2242.63	0.4
2242.94	0.64
2243.26	-0.04
2243.57	-0.04
2243.88	0.48
2244.2	0.48
2244.51	0.48
2244.82	1.2
2245.14	1.36
2245.45	0.96
2245.76	0.96
2246.08	0.68
2246.39	0.52
2246.7	0.48
2247.02	0.2
2247.33	0.28
2247.64	0.28
2247.96	0.28
2248.27	0.08
2248.58	-0.44
2248.9	-0.4
2249.21	-0.08
2249.52	-0.08
2249.83	-0.08
2250.15	0.64
2250.46	0.6
2250.77	0.36
2251.09	0.36
2251.4	0.6
2251.71	0.48
2252.03	0.4
2252.34	0.36
2252.65	0.36
2252.96	0.12
2253.28	0.04
2253.59	0.36
2253.9	0.56
2254.21	1.08
2254.53	1.08
2254.84	0.68
2255.15	0.6
2255.47	0.44
2255.78	-0.04
2256.09	0.08
2256.4	0.52
2256.72	0.28
2257.03	0.56
2257.34	0.52
2257.65	0.68
2257.97	0.64
2258.28	0.76
2258.59	0.4
2258.9	1.04
2259.22	0.8
2259.53	0.84
2259.84	0.72
2260.15	0.8
2260.46	0.16
2260.78	0.28
2261.09	0.44
2261.4	0.96
2261.71	0.88
2262.03	1.12
2262.34	1.16
2262.65	1.24
2262.96	0.72
2263.27	0.76
2263.59	0.64
2263.9	0.44
2264.21	0.56
2264.52	0.76
2264.83	0.8
2265.15	0.84
2265.46	0.96
2265.77	0.8
2266.08	0.84
2266.39	1.04
2266.7	1
2267.02	0.88
2267.33	0.32
2267.64	0.2
2267.95	0.24
2268.26	0.12
2268.57	0.16
2268.89	0.64
2269.2	0.6
2269.51	0.56
2269.82	0.64
2270.13	0.84
2270.44	0.76
2270.76	0.4
2271.07	0.12
2271.38	-0.4
2271.69	-0.64
2272	-0.68
2272.31	-0.56
2272.62	-1.32
2272.93	-0.6
2273.25	-0.52
2273.56	-0.28
2273.87	0.4
2274.18	1.28
2274.49	1
2274.8	1.08
2275.11	1.04
2275.42	1
2275.74	1.2
2276.05	1.36
2276.36	1.44
2276.67	1.32
2276.98	0.84
2277.29	0.64
2277.6	0.56
2277.91	0.36
2278.22	-0.16
2278.53	-0.12
2278.85	-0.24
2279.16	-1.32
2279.47	-1.24
2279.78	-0.44
2280.09	-0.48
2280.4	-0.12
2280.71	0.88
2281.02	0.76
2281.33	0.36
2281.64	0.36
2281.95	0.16
2282.26	0.36
2282.57	0.36
2282.88	0.36
2283.19	0.36
2283.5	0.28
2283.82	0.32
2284.13	0.32
2284.44	0.32
2284.75	-0.28
2285.06	-0.36
2285.37	-0.6
2285.68	-0.6
2285.99	-0.56
2286.3	0.04
2286.61	0.04
2286.92	0.12
2287.23	0.24
2287.54	0.36
2287.85	0.36
2288.16	0.44
2288.47	0.44
2288.78	0.32
2289.09	0.28
2289.4	0.4
2289.71	0.32
2290.02	0.24
2290.33	0.24
2290.64	0.2
2290.95	-0.12
2291.26	-0.12
2291.57	-0.12
2291.88	-0.52
2292.19	-0.36
2292.5	-0.16
2292.81	-0.16
2293.12	-0.16
2293.43	0.24
2293.74	0
2294.05	0
2294.36	0
2294.67	0
2294.98	0
2295.29	0
2295.6	0
2295.91	0
2296.21	0
2296.52	0
2296.83	0
2297.14	0
2297.45	0
2297.76	0
2298.07	0
2298.38	0
2298.69	0
2299	0
2299.31	0
2299.62	0
2299.93	0
2300.24	0
2300.55	0
2300.85	0
2301.16	0
2301.47	0
2301.78	0
2302.09	0
2302.4	0
2302.71	0
2303.02	0
2303.33	0
2303.64	0
2303.94	0
2304.25	0
2304.56	0
2304.87	0
2305.18	0
2305.49	0
2305.8	0
2306.11	0
2306.42	0
2306.72	0
2307.03	0
2307.34	0
2307.65	0
2307.96	0
2308.27	0
2308.58	0
2308.88	0
2309.19	0
2309.5	0
2309.81	0
2310.12	0
2310.43	0
2310.74	0
2311.04	0
2311.35	0
2311.66	0
2311.97	0
2312.28	0
2312.59	0
2312.89	0
2313.2	0
2313.51	0
2313.82	0
2314.13	0
2314.43	0
2314.74	0
2315.05	0
2315.36	0
2315.67	0
2315.97	0
2316.28	0
2316.59	0
2316.9	0
2317.21	0
2317.51	0
2317.82	0
2318.13	0
2318.44	0
2318.75	0
2319.05	0
2319.36	0
2319.67	0
2319.98	0
2320.28	0
2320.59	0
2320.9	0
2321.21	0
2321.51	0
2321.82	0
2322.13	0
2322.44	0
2322.74	0
2323.05	0
2323.36	0
2323.67	0
2323.97	0
2324.28	0
2324.59	0
2324.9	0
2325.2	0
2325.51	0
2325.82	0
2326.13	0
2326.43	0
2326.74	0
2327.05	0
2327.35	0
2327.66	0
2327.97	0
2328.27	0
2328.58	0
2328.89	0
2329.2	0
2329.5	0
2329.81	0
2330.12	0
2330.42	0
2330.73	0
2331.04	0
2331.34	0
2331.65	0
2331.96	0
2332.26	0
2332.57	0
2332.88	0
2333.18	0
2333.49	0
2333.8	0
2334.1	0
2334.41	0
2334.72	0
2335.02	0
2335.33	0
2335.64	0
2335.94	0
2336.25	0
2336.56	0
2336.86	0
2337.17	0
2337.48	0
2337.78	0
2338.09	0
2338.39	0
2338.7	0
2339.01	0
2339.31	0
2339.62	0
2339.93	0
2340.23	0
2340.54	0
2340.84	0
2341.15	0
2341.46	0
2341.76	0
2342.07	0
2342.37	0
2342.68	0
2342.99	0
2343.29	0
2343.6	0
2343.9	0
2344.21	0
2344.51	0
2344.82	0
2345.13	0
2345.43	0
2345.74	0
2346.04	0
2346.35	0
2346.65	0
2346.96	0
2347.27	0
2347.57	0
2347.88	0
2348.18	0
2348.49	0
2348.79	0
2349.1	0
2349.4	0
2349.71	0
2350.01	0
2350.32	0
2350.63	0
2350.93	0
2351.24	0
2351.54	0
2351.85	0
2352.15	0
2352.46	0
2352.76	0
2353.07	0
2353.37	0
2353.68	0
2353.98	0
2354.29	0
2354.59	0
2354.9	0
2355.2	0
2355.51	0
2355.81	0
2356.12	0
2356.42	0
2356.73	0
2357.03	0
2357.34	0
2357.64	0
2357.95	0
2358.25	0
2358.55	0
2358.86	0
2359.16	0
2359.47	0
2359.77	0
2360.08	0
2360.38	0
2360.69	0
2360.99	0
2361.3	0
2361.6	0
2361.9	0
2362.21	0
2362.51	0
2362.82	0
2363.12	0
2363.43	0
2363.73	0
2364.04	0
2364.34	0
2364.64	0
2364.95	0
2365.25	0
2365.56	0
2365.86	0
2366.16	0
2366.47	0
2366.77	0
2367.08	0
2367.38	0
2367.68	0
2367.99	0
2368.29	0
2368.6	0
2368.9	0
2369.2	0
2369.51	0
2369.81	0
2370.12	0
2370.42	0
2370.72	0
2371.03	0
2371.33	0
2371.63	0
2371.94	0
2372.24	0
2372.55	0
2372.85	0
2373.15	0
2373.46	0
2373.76	0
2374.06	0
2374.37	0
2374.67	0
2374.97	0
2375.28	0
2375.58	0
2375.88	0
2376.19	0
2376.49	0
2376.79	0
2377.1	0
2377.4	0
2377.7	0
2378.01	0
2378.31	0
2378.61	0
2378.92	0
2379.22	0
2379.52	0
2379.82	0
2380.13	0
2380.43	0
2380.73	0
2381.04	0
2381.34	0
2381.64	0
2381.95	0
2382.25	0
2382.55	0
2382.85	0
2383.16	0
2383.46	0
2383.76	0
2384.06	0
2384.37	0
2384.67	0
2384.97	0
2385.28	0
2385.58	0
2385.88	0
2386.18	0
2386.49	0
2386.79	0
2387.09	0
2387.39	0
2387.69	0
2388	0
2388.3	0
2388.6	0
2388.9	0
2389.21	0
2389.51	0
2389.81	0
2390.11	0
2390.42	0
2390.72	0
2391.02	0
2391.32	0
2391.62	0
2391.93	0
2392.23	0
2392.53	0
2392.83	0
2393.13	0
2393.44	0
2393.74	0
2394.04	0
2394.34	0
2394.64	0
2394.95	0
2395.25	0
2395.55	0
2395.85	0
2396.15	0
2396.45	0
2396.76	0
2397.06	0
2397.36	0
2397.66	0
2397.96	0
2398.26	0
2398.57	0
2398.87	0
2399.17	0
2399.47	0
2399.77	0
2400.07	0
2400.37	0
2400.68	0
2400.98	0
2401.28	0
2401.58	0
2401.88	0
2402.18	0
2402.48	0
2402.79	0
2403.09	0
2403.39	0
2403.69	0
2403.99	0
2404.29	0
2404.59	0
2404.89	0
2405.19	0
2405.5	0
2405.8	0
2406.1	0
2406.4	0
2406.7	0
2407	0
2407.3	0
2407.6	0
2407.9	0
2408.2	0
2408.5	0
2408.8	0
2409.11	0
2409.41	0
2409.71	0
2410.01	0
2410.31	0
2410.61	0
2410.91	0
2411.21	0
2411.51	0
2411.81	0
2412.11	0
2412.41	0
2412.71	0
2413.01	0
2413.31	0
2413.61	0
2413.91	0
2414.21	0
2414.51	0
2414.81	0
2415.12	0
2415.42	0
2415.72	0
2416.02	0
2416.32	0
2416.62	0
2416.92	0
2417.22	0
2417.52	0
2417.82	0
2418.12	0
2418.42	0
2418.72	0
2419.02	0
2419.32	0
2419.62	0
2419.92	0
2420.22	0
2420.52	0
2420.82	0
2421.12	0
2421.42	0
2421.71	0
2422.01	0
2422.31	0
2422.61	0
2422.91	0
2423.21	0
2423.51	0
2423.81	0
2424.11	0
2424.41	0
2424.71	0
2425.01	0
2425.31	0
2425.61	0
2425.91	0
2426.21	0
2426.51	0
2426.81	0
2427.11	0
2427.41	0
2427.7	0
2428	0
2428.3	0
2428.6	0
2428.9	0
2429.2	0
2429.5	0
2429.8	0
2430.1	0
2430.4	0
2430.7	0
2430.99	0
2431.29	0
2431.59	0
2431.89	0
2432.19	0
2432.49	0
2432.79	0
2433.09	0
2433.39	0
2433.68	0
2433.98	0
2434.28	0
2434.58	0
2434.88	0
2435.18	0
2435.48	0
2435.78	0
2436.07	0
2436.37	0
2436.67	0
2436.97	0
2437.27	0
2437.57	0
2437.86	0
2438.16	0
2438.46	0
2438.76	0
2439.06	0
2439.36	0
2439.66	0
2439.95	0
2440.25	0
2440.55	0
2440.85	0
2441.15	0
2441.44	0
2441.74	0
2442.04	0
2442.34	0
2442.64	0
2442.93	0
2443.23	0
2443.53	0
2443.83	0
2444.13	0
2444.42	0
2444.72	0
2445.02	0
2445.32	0
2445.62	0
2445.91	0
2446.21	0
2446.51	0
2446.81	0
2447.1	0
2447.4	0
2447.7	0
2448	0
2448.3	0
2448.59	0
2448.89	0
2449.19	0
2449.49	0
2449.78	0
2450.08	0
2450.38	0
2450.68	0
2450.97	0
2451.27	0
2451.57	0
2451.87	0
2452.16	0
2452.46	0
2452.76	0
2453.05	0
2453.35	0
2453.65	0
2453.95	0
2454.24	0
2454.54	0
2454.84	0
2455.13	0
2455.43	0
2455.73	0
2456.03	0
2456.32	0
2456.62	0
2456.92	0
2457.21	0
2457.51	0
2457.81	0
2458.1	0
2458.4	0
2458.7	0
2458.99	0
2459.29	0
2459.59	0
2459.88	0
2460.18	0
2460.48	0
2460.77	0
2461.07	0
2461.37	0
2461.66	0
2461.96	0
2462.26	0
2462.55	0
2462.85	0
2463.15	0
2463.44	0
2463.74	0
2464.04	0
2464.33	0
2464.63	0
2464.92	0
2465.22	0
2465.52	0
2465.81	0
2466.11	0
2466.41	0
2466.7	0
2467	0
2467.29	0
2467.59	0
2467.89	0
2468.18	0
2468.48	0
2468.77	0
2469.07	0
2469.37	0
2469.66	0
2469.96	0
2470.25	0
2470.55	0
2470.84	0
2471.14	0
2471.44	0
2471.73	0
2472.03	0
2472.32	0
2472.62	0
2472.91	0
2473.21	0
2473.51	0
2473.8	0
2474.1	0
2474.39	0
2474.69	0
2474.98	0
2475.28	0
2475.57	0
2475.87	0
2476.17	0
2476.46	0
2476.76	0
2477.05	0
2477.35	0
2477.64	0
2477.94	0
2478.23	0
2478.53	0
2478.82	0
2479.12	0
2479.41	0
2479.71	0
2480	0
2480.3	0
2480.59	0
2480.89	0
2481.18	0
2481.48	0
2481.77	0
2482.07	0
2482.36	0
2482.66	0
2482.95	0
2483.25	0
2483.54	0
2483.84	0
2484.13	0
2484.43	0
2484.72	0
2485.02	0
2485.31	0
2485.6	0
2485.9	0
2486.19	0
2486.49	0
2486.78	0
2487.08	0
2487.37	0
2487.67	0
2487.96	0
2488.26	0
2488.55	0
2488.84	0
2489.14	0
2489.43	0
2489.73	0
2490.02	0
2490.32	0
2490.61	0
2490.9	0
2491.2	0
2491.49	0
2491.79	0
2492.08	0
2492.37	0
2492.67	0
2492.96	0
2493.26	0
2493.55	0
2493.84	0
2494.14	0
2494.43	0
2494.73	0
2495.02	0
2495.31	0
2495.61	0
2495.9	0
2496.2	0
2496.49	0
2496.78	0
2497.08	0
2497.37	0
2497.66	0
2497.96	0
2498.25	0
2498.54	0
2498.84	0
2499.13	0
2499.43	0
2499.72	0
2500.01	0
2500.31	0
2500.6	0
2500.89	0
2501.19	0
2501.48	0
2501.77	0
2502.07	0
2502.36	0
2502.65	0
2502.95	0
2503.24	0
2503.53	0
2503.82	0
2504.12	0
2504.41	0
2504.7	0
2505	0
2505.29	0
2505.58	0
2505.88	0
2506.17	0
2506.46	0
2506.76	0
2507.05	0
2507.34	0
2507.63	0
2507.93	0
2508.22	0
2508.51	0
2508.8	0
2509.1	0
2509.39	0
2509.68	0
2509.98	0
2510.27	0
2510.56	0
2510.85	0
2511.15	0
2511.44	0
2511.73	0
2512.02	0
2512.32	0
2512.61	0
2512.9	0
2513.19	0
2513.49	0
2513.78	0
2514.07	0
2514.36	0
2514.65	0
2514.95	0
2515.24	0
2515.53	0
2515.82	0
2516.12	0
2516.41	0
2516.7	0
2516.99	0
2517.28	0
2517.58	0
2517.87	0
2518.16	0
2518.45	0
2518.74	0
2519.04	0
2519.33	0
2519.62	0
2519.91	0
2520.2	0
2520.5	0
2520.79	0
2521.08	0
2521.37	0
2521.66	0
2521.95	0
2522.25	0
2522.54	0
2522.83	0
2523.12	0
2523.41	0
2523.7	0
2523.99	0
2524.29	0
2524.58	0
2524.87	0
2525.16	0
2525.45	0
2525.74	0
2526.03	0
2526.33	0
2526.62	0
2526.91	0
2527.2	0
2527.49	0
2527.78	0
2528.07	0
2528.36	0
2528.66	0
2528.95	0
2529.24	0
2529.53	0
2529.82	0
2530.11	0
2530.4	0
2530.69	0
2530.98	0
2531.27	0
2531.57	0
2531.86	0
2532.15	0
2532.44	0
2532.73	0
2533.02	0
2533.31	0
2533.6	0
2533.89	0
2534.18	0
2534.47	0
2534.76	0
2535.05	0
2535.35	0
2535.64	0
2535.93	0
2536.22	0
2536.51	0
2536.8	0
2537.09	0
2537.38	0
2537.67	0
2537.96	0
2538.25	0
2538.54	0
2538.83	0
2539.12	0
2539.41	0
2539.7	0
2539.99	0
2540.28	0
2540.57	0
2540.86	0
2541.15	0
2541.44	0
2541.73	0
2542.02	0
2542.31	0
2542.6	0
2542.89	0
2543.18	0
2543.47	0
2543.76	0
2544.05	0
2544.34	0
2544.63	0
2544.92	0
2545.21	0
2545.5	0
2545.79	0
2546.08	0
2546.37	0
2546.66	0
2546.95	0
2547.24	0
2547.53	0
2547.82	0
2548.11	0
2548.4	0
2548.69	0
2548.98	0
2549.27	0
2549.55	0
2549.84	0
2550.13	0
2550.42	0
2550.71	0
2551	0
2551.29	0
2551.58	0
2551.87	0
2552.16	0
2552.45	0
2552.74	0
2553.03	0
2553.31	0
2553.6	0
2553.89	0
2554.18	0
2554.47	0
2554.76	0
2555.05	0
2555.34	0
2555.63	0
2555.92	0
2556.2	0
2556.49	0
2556.78	0
2557.07	0
2557.36	0
2557.65	0
2557.94	0
2558.23	0
2558.51	0
2558.8	0
2559.09	0
2559.38	0
2559.67	0
2559.96	0
2560.25	0
2560.53	0
2560.82	0
2561.11	0
2561.4	0
2561.69	0
2561.98	0
2562.27	0
2562.55	0
2562.84	0
2563.13	0
2563.42	0
2563.71	0
2564	0
2564.28	0
2564.57	0
2564.86	0
2565.15	0
2565.44	0
2565.72	0
2566.01	0
2566.3	0
2566.59	0
2566.88	0
2567.16	0
2567.45	0
2567.74	0
2568.03	0
2568.32	0
2568.6	0
2568.89	0
2569.18	0
2569.47	0
2569.75	0

