Source: Spectrum Viewer

Chart: Pulse Spectrum

Series: 
Wavelength (nm)	S (a.u.)
1179.9	0
1180.29	0
1180.68	0
1181.06	0
1181.45	0
1181.83	0
1182.22	0
1182.6	0
1182.99	0
1183.38	0
1183.76	0
1184.15	0
1184.53	0
1184.92	0
1185.3	0
1185.69	0
1186.07	0
1186.46	0
1186.85	0
1187.23	0
1187.62	0
1188	0
1188.39	0
1188.77	0
1189.16	0
1189.54	0
1189.93	0
1190.31	0
1190.7	0
1191.08	0
1191.47	0
1191.85	0
1192.24	0
1192.62	0
1193.01	0
1193.39	0
1193.78	0
1194.16	0
1194.55	0
1194.93	0
1195.32	0
1195.7	0
1196.09	0
1196.47	0
1196.86	0
1197.24	0
1197.63	0
1198.01	0
1198.4	0
1198.78	0
1199.16	0
1199.55	0
1199.93	0
1200.32	0
1200.7	0
1201.09	0
1201.47	0
1201.86	0
1202.24	0
1202.63	0
1203.01	0
1203.39	0
1203.78	0
1204.16	0
1204.55	0
1204.93	0
1205.32	0
1205.7	0
1206.08	0
1206.47	0
1206.85	0
1207.24	0
1207.62	0
1208	0
1208.39	0
1208.77	0
1209.16	0
1209.54	0
1209.92	0
1210.31	0
1210.69	0
1211.08	0
1211.46	0
1211.84	0
1212.23	0
1212.61	0
1213	0
1213.38	0
1213.76	0
1214.15	0
1214.53	0
1214.91	0
1215.3	0
1215.68	0
1216.06	0
1216.45	0
1216.83	0
1217.22	0
1217.6	0
1217.98	0
1218.37	0
1218.75	0
1219.13	0
1219.52	0
1219.9	0
1220.28	0
1220.67	0
1221.05	0
1221.43	0
1221.82	0
1222.2	0
1222.58	0
1222.97	0
1223.35	0
1223.73	0
1224.11	0
1224.5	0
1224.88	0
1225.26	0
1225.65	0
1226.03	0
1226.41	0
1226.8	0
1227.18	0
1227.56	0
1227.94	0
1228.33	0
1228.71	0
1229.09	0
1229.47	0
1229.86	0
1230.24	0
1230.62	0
1231.01	0
1231.39	0
1231.77	0
1232.15	0
1232.54	0
1232.92	0
1233.3	0
1233.68	0
1234.07	0
1234.45	0
1234.83	0
1235.21	0
1235.6	0
1235.98	0
1236.36	0
1236.74	0
1237.12	0
1237.51	0
1237.89	0
1238.27	0
1238.65	0
1239.04	0
1239.42	0
1239.8	0
1240.18	0
1240.56	0
1240.95	0
1241.33	0
1241.71	0
1242.09	0
1242.47	0
1242.86	0
1243.24	0
1243.62	0
1244	0
1244.38	0
1244.77	0
1245.15	0
1245.53	0
1245.91	0
1246.29	0
1246.67	0
1247.06	0
1247.44	0
1247.82	0
1248.2	0
1248.58	0
1248.96	0
1249.34	0
1249.73	0
1250.11	0
1250.49	0
1250.87	0
1251.25	0
1251.63	0
1252.01	0
1252.4	0
1252.78	0
1253.16	0
1253.54	0
1253.92	0
1254.3	0
1254.68	0
1255.06	0
1255.45	0
1255.83	0
1256.21	0
1256.59	0
1256.97	0
1257.35	0
1257.73	0
1258.11	0
1258.49	0
1258.87	0
1259.26	0
1259.64	0
1260.02	0
1260.4	0
1260.78	0
1261.16	0
1261.54	0
1261.92	0
1262.3	0
1262.68	0
1263.06	0
1263.44	0
1263.82	0
1264.21	0
1264.59	0
1264.97	0
1265.35	0
1265.73	0
1266.11	0
1266.49	0
1266.87	0
1267.25	0
1267.63	0
1268.01	0
1268.39	0
1268.77	0
1269.15	0
1269.53	0
1269.91	0
1270.29	0
1270.67	0
1271.05	0
1271.43	0
1271.81	0
1272.19	0
1272.57	0
1272.95	0
1273.33	0
1273.71	0
1274.09	0
1274.47	0
1274.85	0
1275.23	0
1275.61	0
1275.99	0
1276.37	0
1276.75	0
1277.13	0
1277.51	0
1277.89	0
1278.27	0
1278.65	0
1279.03	0
1279.41	0
1279.79	0
1280.17	0
1280.55	0
1280.93	0
1281.31	0
1281.69	0
1282.07	0
1282.45	0
1282.82	0
1283.2	0
1283.58	0
1283.96	0
1284.34	0
1284.72	0
1285.1	0
1285.48	0
1285.86	0
1286.24	0
1286.62	0
1287	0
1287.38	0
1287.75	0
1288.13	0
1288.51	0
1288.89	0
1289.27	0
1289.65	0
1290.03	0
1290.41	0
1290.79	0
1291.17	0
1291.54	0
1291.92	0
1292.3	0
1292.68	0
1293.06	0
1293.44	0
1293.82	0
1294.2	0
1294.57	0
1294.95	0
1295.33	0
1295.71	0
1296.09	0
1296.47	0
1296.85	0
1297.22	0
1297.6	0
1297.98	0
1298.36	0
1298.74	0
1299.12	0
1299.5	0
1299.87	0
1300.25	0
1300.63	0
1301.01	0
1301.39	0
1301.77	0
1302.14	0
1302.52	0
1302.9	0
1303.28	0
1303.66	0
1304.03	0
1304.41	0
1304.79	0
1305.17	0
1305.55	0
1305.92	0
1306.3	0
1306.68	0
1307.06	0
1307.44	0
1307.81	0
1308.19	0
1308.57	0
1308.95	0
1309.32	0
1309.7	0
1310.08	0
1310.46	0
1310.84	0
1311.21	0
1311.59	0
1311.97	0
1312.35	0
1312.72	0
1313.1	0
1313.48	0
1313.86	0
1314.23	0
1314.61	0
1314.99	0
1315.37	0
1315.74	0
1316.12	0
1316.5	0
1316.87	0
1317.25	0
1317.63	0
1318.01	0
1318.38	0
1318.76	0
1319.14	0
1319.52	0
1319.89	0
1320.27	0
1320.65	0
1321.02	0
1321.4	0
1321.78	0
1322.15	0
1322.53	0
1322.91	0
1323.29	0
1323.66	0
1324.04	0
1324.42	0
1324.79	0
1325.17	0
1325.55	0
1325.92	0
1326.3	0
1326.68	0
1327.05	0
1327.43	0
1327.81	0
1328.18	0
1328.56	0
1328.94	0
1329.31	0
1329.69	0
1330.06	0
1330.44	0
1330.82	0
1331.19	0
1331.57	0
1331.95	0
1332.32	0
1332.7	0
1333.08	0
1333.45	0
1333.83	0
1334.2	0
1334.58	0
1334.96	0
1335.33	0
1335.71	0
1336.08	0
1336.46	0
1336.84	0
1337.21	0
1337.59	0
1337.96	0
1338.34	0
1338.72	0
1339.09	0
1339.47	0
1339.84	0
1340.22	0
1340.6	0
1340.97	0
1341.35	0
1341.72	0
1342.1	0
1342.47	0
1342.85	0
1343.23	0
1343.6	0
1343.98	0
1344.35	0
1344.73	0
1345.1	0
1345.48	0
1345.85	0
1346.23	0
1346.61	0
1346.98	0
1347.36	0
1347.73	0
1348.11	0
1348.48	0
1348.86	0
1349.23	0
1349.61	0
1349.98	0
1350.36	0
1350.73	0
1351.11	0
1351.48	0
1351.86	0
1352.23	0
1352.61	0
1352.98	0
1353.36	0
1353.73	0
1354.11	0
1354.48	0
1354.86	0
1355.23	0
1355.61	0
1355.98	0
1356.36	0
1356.73	0
1357.11	0
1357.48	0
1357.86	0
1358.23	0
1358.61	0
1358.98	0
1359.35	0
1359.73	0
1360.1	0
1360.48	0
1360.85	0
1361.23	0
1361.6	0
1361.98	0
1362.35	0
1362.72	0
1363.1	0
1363.47	0
1363.85	0
1364.22	0
1364.6	0
1364.97	0
1365.34	0
1365.72	0
1366.09	0
1366.47	0
1366.84	0
1367.22	0
1367.59	0
1367.96	0
1368.34	0
1368.71	0
1369.09	0.12
1369.46	-0.88
1369.83	-0.76
1370.21	-0.68
1370.58	-0.6
1370.96	-0.72
1371.33	0.28
1371.7	0.16
1372.08	0.08
1372.45	0
1372.82	0
1373.2	0
1373.57	0
1373.95	0.04
1374.32	0.04
1374.69	0.12
1375.07	0.12
1375.44	0.12
1375.81	0.12
1376.19	0.52
1376.56	0.52
1376.93	0.84
1377.31	0.84
1377.68	0.88
1378.05	0.48
1378.43	0.4
1378.8	0.08
1379.17	0.16
1379.55	0.28
1379.92	0.6
1380.29	0.6
1380.67	0.72
1381.04	0.64
1381.41	0.52
1381.79	0.2
1382.16	0.2
1382.53	0.08
1382.91	-0.88
1383.28	-0.96
1383.65	-0.96
1384.03	-0.84
1384.4	-0.8
1384.77	0.16
1385.14	0.16
1385.52	0.32
1385.89	0.6
1386.26	0.84
1386.64	0.84
1387.01	0.84
1387.38	0.92
1387.75	0.76
1388.13	0.88
1388.5	0.88
1388.87	0.88
1389.25	1.12
1389.62	0.68
1389.99	0.08
1390.36	0.08
1390.74	0.08
1391.11	-0.36
1391.48	-0.16
1391.85	0.24
1392.23	0.24
1392.6	0.24
1392.97	0.28
1393.34	0.28
1393.72	0.08
1394.09	0.08
1394.46	0.08
1394.83	0
1395.21	0
1395.58	0
1395.95	0
1396.32	0.08
1396.69	0.08
1397.07	0.08
1397.44	0.16
1397.81	0.16
1398.18	0.24
1398.55	0.24
1398.93	0.36
1399.3	0.36
1399.67	0.36
1400.04	0.2
1400.41	0.2
1400.79	0.08
1401.16	0.16
1401.53	0.2
1401.9	0.28
1402.27	0.6
1402.65	0.64
1403.02	0.64
1403.39	0.6
1403.76	0.16
1404.13	-0.16
1404.51	-0.2
1404.88	-0.32
1405.25	-0.12
1405.62	0.48
1405.99	0.48
1406.36	0.48
1406.74	0.64
1407.11	0.44
1407.48	0.24
1407.85	-0.8
1408.22	-0.8
1408.59	-1
1408.96	-0.96
1409.34	-1
1409.71	0.04
1410.08	0.08
1410.45	0.08
1410.82	0.04
1411.19	0.04
1411.56	0.04
1411.93	0
1412.31	0.12
1412.68	0.44
1413.05	0.6
1413.42	1
1413.79	1.04
1414.16	0.8
1414.53	0.48
1414.9	0.12
1415.27	-0.24
1415.65	-0.16
1416.02	-0.04
1416.39	-0.04
1416.76	0.16
1417.13	0.2
1417.5	0.08
1417.87	0.08
1418.24	0.08
1418.61	0.08
1418.98	0.36
1419.35	0.44
1419.73	0.44
1420.1	0.44
1420.47	0.44
1420.84	0.08
1421.21	0.04
1421.58	0.2
1421.95	0.2
1422.32	0.2
1422.69	0.24
1423.06	0.32
1423.43	0.16
1423.8	0.16
1424.17	0.16
1424.54	0.16
1424.91	0.24
1425.28	0.24
1425.65	0.32
1426.02	0.4
1426.39	0.4
1426.76	-0.4
1427.14	-0.4
1427.51	-0.48
1427.88	-0.56
1428.25	-0.52
1428.62	0.08
1428.99	0.16
1429.36	0.16
1429.73	0.16
1430.1	0.08
1430.47	0.08
1430.84	0
1431.21	0
1431.58	0.16
1431.95	0.2
1432.32	2.77556e-17
1432.69	0.04
1433.06	0.04
1433.43	-0.12
1433.8	-0.16
1434.17	0.04
1434.54	0.12
1434.91	0.24
1435.28	0.32
1435.64	0.6
1436.01	0.24
1436.38	0.12
1436.75	0.08
1437.12	-4.82944e-17
1437.49	-2.88669e-17
1437.86	0.44
1438.23	0.44
1438.6	0.36
1438.97	0.36
1439.34	0.16
1439.71	0.16
1440.08	0.16
1440.45	0.48
1440.82	-0.12
1441.19	-0.16
1441.56	-0.08
1441.93	-0.08
1442.3	-0.36
1442.67	-1.36
1443.03	-1.4
1443.4	-1.56
1443.77	-1.56
1444.14	-1.32
1444.51	0.6
1444.88	0.76
1445.25	0.76
1445.62	0.88
1445.99	0.6
1446.36	0.6
1446.73	0.48
1447.09	0.52
1447.46	0.44
1447.83	0.52
1448.2	0.32
1448.57	0.08
1448.94	0.36
1449.31	0.4
1449.68	0.32
1450.05	0.24
1450.41	0.44
1450.78	-0.2
1451.15	-0.04
1451.52	-0.04
1451.89	-4.82944e-17
1452.26	-4.82944e-17
1452.63	0.44
1453	0.2
1453.36	0.36
1453.73	0.28
1454.1	0.44
1454.47	0.4
1454.84	0.6
1455.21	0.52
1455.57	0.24
1455.94	0.36
1456.31	0.36
1456.68	0.32
1457.05	0.24
1457.42	0.8
1457.78	0.56
1458.15	0.6
1458.52	0.44
1458.89	0.44
1459.26	0.16
1459.63	0.12
1459.99	0.12
1460.36	0.2
1460.73	0.2
1461.1	0.2
1461.47	0.2
1461.83	0.08
1462.2	0.12
1462.57	0.16
1462.94	0.2
1463.31	0.2
1463.67	0.2
1464.04	-0.12
1464.41	1.44334e-17
1464.78	-0.64
1465.15	-0.44
1465.51	-0.08
1465.88	0.24
1466.25	0.16
1466.62	1
1466.98	0.88
1467.35	0.52
1467.72	0.4
1468.09	0.32
1468.46	0.08
1468.82	0.72
1469.19	0.72
1469.56	0.72
1469.93	0.92
1470.29	0.92
1470.66	0.6
1471.03	0.6
1471.4	0.6
1471.76	0.44
1472.13	0.48
1472.5	0.28
1472.86	0.52
1473.23	0.56
1473.6	0.68
1473.97	0.64
1474.33	0.76
1474.7	0.76
1475.07	0.72
1475.44	0.56
1475.8	0.36
1476.17	0.04
1476.54	-0.2
1476.9	-0.16
1477.27	-0.08
1477.64	0.12
1478	0.4
1478.37	0.52
1478.74	0.52
1479.11	0.52
1479.47	0.52
1479.84	0.24
1480.21	0.4
1480.57	0.36
1480.94	0.44
1481.31	0.44
1481.67	0.44
1482.04	0.4
1482.41	0.48
1482.77	0.32
1483.14	0.32
1483.51	0.56
1483.87	0.44
1484.24	0.4
1484.61	0.4
1484.97	0.4
1485.34	0.44
1485.71	-0.64
1486.07	-0.44
1486.44	-0.2
1486.81	-0.2
1487.17	-0.44
1487.54	0.52
1487.9	0.44
1488.27	0.2
1488.64	2.77556e-17
1489	0.28
1489.37	0.32
1489.74	0.2
1490.1	0.24
1490.47	0.44
1490.83	0.12
1491.2	0.08
1491.57	0.12
1491.93	0.08
1492.3	0.12
1492.66	0.28
1493.03	0.28
1493.4	0.2
1493.76	0.2
1494.13	0.16
1494.49	0
1494.86	0
1495.23	0
1495.59	0
1495.96	-1.4
1496.32	-1.4
1496.69	-1.4
1497.06	-1.4
1497.42	-2.2
1497.79	-0.76
1498.15	-0.76
1498.52	-0.76
1498.88	-0.48
1499.25	0.32
1499.62	-0.12
1499.98	-0.08
1500.35	-0.08
1500.71	0.12
1501.08	0.52
1501.44	0.92
1501.81	0.92
1502.17	1
1502.54	0.52
1502.9	0.12
1503.27	0.32
1503.64	0.32
1504	0.24
1504.37	0.28
1504.73	0.28
1505.1	0.08
1505.46	0.04
1505.83	0.08
1506.19	0.2
1506.56	0.2
1506.92	0.56
1507.29	0.56
1507.65	0.52
1508.02	0.52
1508.38	0.52
1508.75	0.16
1509.11	0.4
1509.48	0.4
1509.84	0.96
1510.21	1.24
1510.57	1.32
1510.94	1.08
1511.3	1.08
1511.67	0.36
1512.03	0.08
1512.4	0
1512.76	0.44
1513.13	-0.56
1513.49	-0.76
1513.85	-0.76
1514.22	-0.76
1514.58	-1.2
1514.95	-0.2
1515.31	0
1515.68	0
1516.04	0
1516.41	0
1516.77	0.08
1517.14	0.08
1517.5	0.08
1517.86	0.08
1518.23	0.08
1518.59	0.04
1518.96	0.12
1519.32	0.2
1519.69	0.52
1520.05	0.56
1520.41	0.52
1520.78	0.6
1521.14	0.52
1521.51	0.28
1521.87	0.28
1522.24	0.56
1522.6	0.56
1522.96	0.56
1523.33	0.48
1523.69	0.52
1524.06	0.24
1524.42	0.08
1524.78	0.16
1525.15	0.36
1525.51	0.44
1525.88	0.56
1526.24	0.64
1526.6	0.56
1526.97	0.48
1527.33	0.32
1527.69	0.48
1528.06	0.4
1528.42	0.8
1528.79	0.72
1529.15	-0.08
1529.51	-0.12
1529.88	-0.08
1530.24	-0.48
1530.6	-0.52
1530.97	0.56
1531.33	0.44
1531.69	0.44
1532.06	0.44
1532.42	0.44
1532.78	0.16
1533.15	0.24
1533.51	0.28
1533.87	0.4
1534.24	0.4
1534.6	0.4
1534.96	0.2
1535.33	0.28
1535.69	0.56
1536.05	0.72
1536.42	0.76
1536.78	0.76
1537.14	0.68
1537.51	0.28
1537.87	0.28
1538.23	0.24
1538.6	0.24
1538.96	0.16
1539.32	0.16
1539.68	0
1540.05	0
1540.41	0
1540.77	0
1541.14	0.04
1541.5	0.04
1541.86	0.4
1542.23	0.76
1542.59	1.12
1542.95	1.16
1543.31	1.44
1543.68	1.08
1544.04	0.72
1544.4	0.36
1544.76	0.36
1545.13	0.48
1545.49	0.48
1545.85	0.48
1546.21	0.48
1546.58	0.44
1546.94	0.04
1547.3	0.32
1547.66	0.32
1548.03	0.52
1548.39	0.56
1548.75	0.92
1549.11	0.68
1549.48	0.68
1549.84	0.64
1550.2	0.56
1550.56	0.2
1550.93	0.2
1551.29	0.24
1551.65	0.12
1552.01	0.12
1552.37	0.12
1552.74	0.16
1553.1	0.12
1553.46	0.08
1553.82	0.44
1554.18	0.44
1554.55	0.44
1554.91	0.56
1555.27	0.56
1555.63	0.24
1555.99	0.32
1556.36	0.4
1556.72	-1.24
1557.08	-1.24
1557.44	-1.08
1557.8	-0.76
1558.17	-0.92
1558.53	0.84
1558.89	1.04
1559.25	0.84
1559.61	0.44
1559.97	0.56
1560.34	0.32
1560.7	0.16
1561.06	0.28
1561.42	0.28
1561.78	0.16
1562.14	-0.24
1562.5	-0.28
1562.87	-0.4
1563.23	-0.4
1563.59	-0.8
1563.95	-0.2
1564.31	0.08
1564.67	0.36
1565.03	0.36
1565.4	1.08
1565.76	0.88
1566.12	1.12
1566.48	1.08
1566.84	1.52
1567.2	1.2
1567.56	1.24
1567.92	1.04
1568.29	0.88
1568.65	0.52
1569.01	0.52
1569.37	0.16
1569.73	-0.12
1570.09	-0.2
1570.45	-0.16
1570.81	0.04
1571.17	0.36
1571.53	0.68
1571.89	0.68
1572.26	0.56
1572.62	0.4
1572.98	0.44
1573.34	0.12
1573.7	0.2
1574.06	0.28
1574.42	0.36
1574.78	0.12
1575.14	0.24
1575.5	0.32
1575.86	-0.56
1576.22	-0.2
1576.58	2.66443e-17
1576.94	0.16
1577.3	0.08
1577.67	0.88
1578.03	0.48
1578.39	0.6
1578.75	0.28
1579.11	0.32
1579.47	0.32
1579.83	0.24
1580.19	0.12
1580.55	0.32
1580.91	0.52
1581.27	0.84
1581.63	0.84
1581.99	0.84
1582.35	0.84
1582.71	0.56
1583.07	0.28
1583.43	0.32
1583.79	0.36
1584.15	0.16
1584.51	0.12
1584.87	0.08
1585.23	0.04
1585.59	0
1585.95	0
1586.31	0.4
1586.67	0.4
1587.03	0.4
1587.39	0.4
1587.75	0.4
1588.11	0
1588.47	0
1588.83	0
1589.19	0
1589.55	0.16
1589.91	0.16
1590.27	0.36
1590.63	0.36
1590.99	0.36
1591.35	0.2
1591.71	0.2
1592.07	0.04
1592.42	0.44
1592.78	1
1593.14	1
1593.5	1
1593.86	0.96
1594.22	0.56
1594.58	0.2
1594.94	0.36
1595.3	0.36
1595.66	0.36
1596.02	0.36
1596.38	0.28
1596.74	0.12
1597.1	0.12
1597.46	0.32
1597.81	0.64
1598.17	0.52
1598.53	0.52
1598.89	0.52
1599.25	0.32
1599.61	0
1599.97	0.12
1600.33	0.24
1600.69	0.56
1601.05	0.56
1601.4	0.8
1601.76	0.52
1602.12	0.44
1602.48	0.12
1602.84	0.2
1603.2	0.08
1603.56	0.52
1603.92	0.48
1604.28	0.64
1604.63	0.8
1604.99	1.08
1605.35	0.8
1605.71	0.8
1606.07	0.92
1606.43	0.68
1606.79	0.28
1607.14	0.28
1607.5	0.48
1607.86	0.52
1608.22	0.52
1608.58	0.52
1608.94	0.52
1609.29	0.32
1609.65	-0.08
1610.01	-0.08
1610.37	-0.08
1610.73	-0.04
1611.09	0.08
1611.44	0.16
1611.8	0.2
1612.16	0.52
1612.52	0.48
1612.88	0.4
1613.24	0.56
1613.59	0.68
1613.95	0.52
1614.31	1
1614.67	0.96
1615.03	0.84
1615.38	0.96
1615.74	0.92
1616.1	0.52
1616.46	0.52
1616.82	0.68
1617.17	0.4
1617.53	0.52
1617.89	0.68
1618.25	0.68
1618.6	0.64
1618.96	0.8
1619.32	0.64
1619.68	0.44
1620.04	0.48
1620.39	0.16
1620.75	0.68
1621.11	0.72
1621.47	0.84
1621.82	1.04
1622.18	1.52
1622.54	1.36
1622.9	1.52
1623.25	0.76
1623.61	0.52
1623.97	0.24
1624.33	-0.16
1624.68	-0.64
1625.04	-3.33053e-18
1625.4	-3.33053e-18
1625.75	-0.36
1626.11	-0.2
1626.47	0.24
1626.83	0.32
1627.18	0.32
1627.54	0.72
1627.9	0.44
1628.26	0.44
1628.61	0.32
1628.97	0.48
1629.33	0.52
1629.68	0.52
1630.04	0.4
1630.4	-0.2
1630.75	-0.36
1631.11	-0.12
1631.47	-0.32
1631.83	-0.16
1632.18	0.48
1632.54	0.52
1632.9	0.52
1633.25	0.72
1633.61	0.44
1633.97	1.2
1634.32	1.36
1634.68	1.52
1635.04	1.84
1635.39	2.24
1635.75	1.52
1636.11	1.32
1636.46	0.96
1636.82	0.84
1637.18	0.44
1637.53	0.4
1637.89	0.4
1638.25	0.24
1638.6	0.04
1638.96	0.16
1639.31	0.32
1639.67	0.48
1640.03	0.96
1640.38	1.04
1640.74	0.96
1641.1	0.8
1641.45	1
1641.81	0.56
1642.16	0.6
1642.52	0.88
1642.88	0.88
1643.23	-2.88398e-17
1643.59	0.4
1643.95	0.28
1644.3	0.04
1644.66	0.16
1645.01	0.84
1645.37	0.4
1645.73	1.12
1646.08	1.08
1646.44	1.16
1646.79	0.56
1647.15	0.72
1647.51	0.2
1647.86	0.6
1648.22	0.36
1648.57	0.36
1648.93	0.2
1649.28	-2.22261e-18
1649.64	-0.12
1650	-0.08
1650.35	0.72
1650.71	1.44
1651.06	1.96
1651.42	2.16
1651.77	2.44
1652.13	2.08
1652.48	1.36
1652.84	0.96
1653.2	0.48
1653.55	0.2
1653.91	0.36
1654.26	0.52
1654.62	0.44
1654.97	0.4
1655.33	0.4
1655.68	0.4
1656.04	0.24
1656.39	0.48
1656.75	0.48
1657.1	0.52
1657.46	0.72
1657.81	0.84
1658.17	0.64
1658.52	1.12
1658.88	1.32
1659.23	1.08
1659.59	1.28
1659.94	1.28
1660.3	0.96
1660.65	1.08
1661.01	1.24
1661.36	1.2
1661.72	1.12
1662.07	0.96
1662.43	1.2
1662.78	1.16
1663.14	2.2
1663.49	2.32
1663.85	2.64
1664.2	2.36
1664.56	2.24
1664.91	-0.88
1665.27	-0.84
1665.62	-1.04
1665.98	-0.88
1666.33	-0.88
1666.69	1.2
1667.04	1.6
1667.39	1.68
1667.75	1.52
1668.1	1.4
1668.46	1.4
1668.81	0.96
1669.17	0.76
1669.52	0.84
1669.88	0.96
1670.23	0.68
1670.58	0.84
1670.94	0.96
1671.29	0.52
1671.65	0.44
1672	0.44
1672.36	0.16
1672.71	0.24
1673.06	0.36
1673.42	0.16
1673.77	0.28
1674.13	0.48
1674.48	0.36
1674.83	0.88
1675.19	1.04
1675.54	1
1675.9	1.04
1676.25	1
1676.6	0.36
1676.96	0.64
1677.31	0.64
1677.67	0.44
1678.02	0.76
1678.37	1.32
1678.73	1.32
1679.08	1.24
1679.43	1.8
1679.79	2.4
1680.14	1.96
1680.5	1.24
1680.85	1.28
1681.2	0.88
1681.56	0.24
1681.91	0.6
1682.26	1.36
1682.62	1.36
1682.97	1.36
1683.32	1.4
1683.68	1.52
1684.03	1.28
1684.38	2.28
1684.74	2.12
1685.09	1.88
1685.44	1.32
1685.8	1.44
1686.15	0.48
1686.5	0.76
1686.86	0.88
1687.21	1.16
1687.56	1.24
1687.92	1.36
1688.27	1.2
1688.62	1.16
1688.98	0.92
1689.33	0.88
1689.68	1.16
1690.03	1.36
1690.39	1.36
1690.74	1.56
1691.09	1.52
1691.45	0.64
1691.8	0.56
1692.15	0.64
1692.5	0.64
1692.86	0.64
1693.21	1.64
1693.56	1.36
1693.92	1.48
1694.27	0.76
1694.62	1.2
1694.97	1.08
1695.33	1.08
1695.68	1.28
1696.03	1.88
1696.38	1.56
1696.74	1.08
1697.09	1.48
1697.44	1.04
1697.79	0.88
1698.15	0.72
1698.5	0.88
1698.85	0.68
1699.2	-2.88398e-17
1699.56	0.08
1699.91	0.12
1700.26	0.24
1700.61	0.04
1700.97	0.56
1701.32	0.48
1701.67	0.28
1702.02	0
1702.37	0.04
1702.73	0.32
1703.08	0.32
1703.43	0.48
1703.78	0.72
1704.13	0.88
1704.49	0.8
1704.84	0.8
1705.19	0.72
1705.54	0.48
1705.89	0.28
1706.25	0.12
1706.6	0.12
1706.95	0.04
1707.3	0.28
1707.65	0.28
1708.01	0.44
1708.36	0.48
1708.71	0.64
1709.06	0.4
1709.41	0.56
1709.76	0.68
1710.12	0.88
1710.47	0.88
1710.82	0.92
1711.17	1.2
1711.52	1.44
1711.87	1.32
1712.23	1.36
1712.58	1.4
1712.93	0.96
1713.28	0.48
1713.63	0.36
1713.98	0.36
1714.33	0.68
1714.69	0.8
1715.04	1.12
1715.39	1.56
1715.74	1.44
1716.09	1.08
1716.44	1.24
1716.79	1.44
1717.14	1.24
1717.5	1.28
1717.85	1.24
1718.2	1.28
1718.55	0.68
1718.9	0.68
1719.25	0.56
1719.6	0.6
1719.95	0.8
1720.3	1.12
1720.65	0.88
1721.01	0.88
1721.36	1.24
1721.71	1.32
1722.06	0.6
1722.41	0.44
1722.76	0.56
1723.11	0.64
1723.46	0.84
1723.81	1.36
1724.16	2.24
1724.51	2.64
1724.86	3
1725.21	3.12
1725.56	3.76
1725.92	3.36
1726.27	3.44
1726.62	2.96
1726.97	2.68
1727.32	2.36
1727.67	3.64
1728.02	4.28
1728.37	5.2
1728.72	5.36
1729.07	5.72
1729.42	5.28
1729.77	4.76
1730.12	4.48
1730.47	4.72
1730.82	4.84
1731.17	4.76
1731.52	5.6
1731.87	5.8
1732.22	5.04
1732.57	5.4
1732.92	6.32
1733.27	5.16
1733.62	5.52
1733.97	6.88
1734.32	7.32
1734.67	7.56
1735.02	7.2
1735.37	7.12
1735.72	6.88
1736.07	5.92
1736.42	5.84
1736.77	7.32
1737.12	8.56
1737.47	9.52
1737.82	10.28
1738.17	9.32
1738.52	10.44
1738.87	9.36
1739.22	8.76
1739.57	9.56
1739.92	9.92
1740.27	9.8
1740.62	10.52
1740.97	11.36
1741.32	10.6
1741.67	10.88
1742.02	10.92
1742.37	10.88
1742.72	10.12
1743.06	9.56
1743.41	9.2
1743.76	8.16
1744.11	6.56
1744.46	6.24
1744.81	6.92
1745.16	7.44
1745.51	9.32
1745.86	10.48
1746.21	10.84
1746.56	11.08
1746.91	10.68
1747.26	9.16
1747.6	9.92
1747.95	9.56
1748.3	8.68
1748.65	8.16
1749	7.44
1749.35	6.24
1749.7	5.84
1750.05	6.04
1750.4	5.48
1750.75	5.4
1751.09	6.12
1751.44	5.76
1751.79	5.16
1752.14	5.4
1752.49	4.56
1752.84	3.52
1753.19	4.64
1753.54	4.92
1753.88	5.04
1754.23	4.84
1754.58	4.24
1754.93	3.04
1755.28	3
1755.63	3.4
1755.98	3.88
1756.32	3.48
1756.67	3.96
1757.02	4
1757.37	3.72
1757.72	3.68
1758.07	3.76
1758.42	3.08
1758.76	2.84
1759.11	1.6
1759.46	1.24
1759.81	1.28
1760.16	0.96
1760.5	0.52
1760.85	0.88
1761.2	0.92
1761.55	0.8
1761.9	0.96
1762.25	1.12
1762.59	1.2
1762.94	1.4
1763.29	1.6
1763.64	1.28
1763.99	0.92
1764.33	0.72
1764.68	0.44
1765.03	0.12
1765.38	0.44
1765.73	0.4
1766.07	0.4
1766.42	0.88
1766.77	1
1767.12	0.76
1767.46	0.76
1767.81	1.32
1768.16	0.76
1768.51	1.16
1768.85	1.24
1769.2	1.24
1769.55	1.12
1769.9	1.16
1770.25	0.72
1770.59	0.56
1770.94	0.56
1771.29	0.16
1771.64	0.28
1771.98	0.2
1772.33	0.2
1772.68	0.24
1773.02	0.32
1773.37	0.2
1773.72	0.24
1774.07	0.32
1774.41	0.56
1774.76	0.6
1775.11	0.56
1775.46	0.72
1775.8	0.64
1776.15	0.48
1776.5	0.6
1776.84	0.8
1777.19	0.88
1777.54	1.04
1777.89	0.92
1778.23	0.76
1778.58	0.64
1778.93	0.76
1779.27	1.08
1779.62	1.48
1779.97	1.52
1780.31	2.12
1780.66	2
1781.01	1.88
1781.35	1.72
1781.7	1.84
1782.05	1.84
1782.39	2.24
1782.74	2.6
1783.09	3.2
1783.43	3.84
1783.78	3.32
1784.13	3
1784.47	2.24
1784.82	2.04
1785.17	1.52
1785.51	2.32
1785.86	2.68
1786.21	4.28
1786.55	4.96
1786.9	7.2
1787.25	6.8
1787.59	7.52
1787.94	7.24
1788.29	7.88
1788.63	7.2
1788.98	8.16
1789.32	9.24
1789.67	10.16
1790.02	9.68
1790.36	10.52
1790.71	11.44
1791.06	11.36
1791.4	12.56
1791.75	15.32
1792.09	17.16
1792.44	18.44
1792.79	17.44
1793.13	18.24
1793.48	18.36
1793.82	16.76
1794.17	15.96
1794.52	19.04
1794.86	19.12
1795.21	19.2
1795.55	18.72
1795.9	16.76
1796.24	15.56
1796.59	18.52
1796.94	19.8
1797.28	24.52
1797.63	27.84
1797.97	28.8
1798.32	26.28
1798.66	25.12
1799.01	24.84
1799.36	25.4
1799.7	26.4
1800.05	29.6
1800.39	29.08
1800.74	27.92
1801.08	32.24
1801.43	34.28
1801.77	33.48
1802.12	36.28
1802.46	36.64
1802.81	36.16
1803.15	35.76
1803.5	34.16
1803.85	33.48
1804.19	31.44
1804.54	28.08
1804.88	28.16
1805.23	27.56
1805.57	25.68
1805.92	30.24
1806.26	33.76
1806.61	33.76
1806.95	34.76
1807.3	40.32
1807.64	42.72
1807.99	41.84
1808.33	42.96
1808.68	42.8
1809.02	40.08
1809.37	41.6
1809.71	43.44
1810.06	45.32
1810.4	45.64
1810.75	44
1811.09	38.08
1811.43	41.44
1811.78	45.36
1812.12	50.76
1812.47	57.16
1812.81	61.28
1813.16	59.44
1813.5	57.36
1813.85	56.68
1814.19	56.16
1814.54	56.2
1814.88	52.04
1815.23	46.68
1815.57	41.24
1815.91	32.76
1816.26	25.56
1816.6	29.12
1816.95	32.36
1817.29	35.48
1817.64	42.16
1817.98	48.44
1818.32	52.6
1818.67	57.56
1819.01	59.68
1819.36	60.32
1819.7	60.04
1820.05	54.6
1820.39	52.56
1820.73	52.52
1821.08	51.04
1821.42	51.16
1821.77	51.56
1822.11	43.64
1822.45	39.64
1822.8	39.84
1823.14	34.36
1823.49	32.56
1823.83	43.44
1824.17	50.6
1824.52	54.92
1824.86	61.8
1825.2	62.96
1825.55	56.28
1825.89	51.48
1826.24	44.6
1826.58	46.84
1826.92	50.52
1827.27	50.12
1827.61	52.12
1827.95	56.8
1828.3	50.88
1828.64	45.24
1828.98	42.16
1829.33	36.72
1829.67	40
1830.02	46.64
1830.36	48.32
1830.7	55.4
1831.05	64.64
1831.39	61.48
1831.73	58.56
1832.08	62.6
1832.42	58.16
1832.76	52.92
1833.1	52.16
1833.45	50.08
1833.79	44.68
1834.13	44.76
1834.48	44.04
1834.82	41.92
1835.16	43.76
1835.51	44.52
1835.85	44
1836.19	44.16
1836.54	40.44
1836.88	33.2
1837.22	26.96
1837.56	22.6
1837.91	17.68
1838.25	23.76
1838.59	30.88
1838.94	35.52
1839.28	39.44
1839.62	41.92
1839.96	37.6
1840.31	31.96
1840.65	29.32
1840.99	28.56
1841.34	36.76
1841.68	44.6
1842.02	48.28
1842.36	55.08
1842.71	54.56
1843.05	43.72
1843.39	40.52
1843.73	46.24
1844.08	47.4
1844.42	54.56
1844.76	64.44
1845.1	63.36
1845.45	55.76
1845.79	53.96
1846.13	52.04
1846.47	47.8
1846.81	44.96
1847.16	45.96
1847.5	48.04
1847.84	51.36
1848.18	55
1848.53	59.24
1848.87	62.16
1849.21	59.76
1849.55	54.48
1849.89	50.44
1850.24	46.68
1850.58	42.36
1850.92	40.12
1851.26	38.28
1851.6	37.12
1851.95	37.4
1852.29	37.92
1852.63	37.24
1852.97	37.36
1853.31	34.84
1853.66	30.84
1854	28.6
1854.34	27.84
1854.68	28.56
1855.02	31.84
1855.36	35
1855.71	34.6
1856.05	34.72
1856.39	30.6
1856.73	25
1857.07	23.48
1857.41	23.64
1857.76	20.72
1858.1	21.24
1858.44	21.52
1858.78	18.6
1859.12	17.84
1859.46	17.88
1859.8	14.96
1860.15	12.96
1860.49	14.8
1860.83	17.72
1861.17	20.88
1861.51	23.6
1861.85	24.08
1862.19	21.92
1862.53	18.4
1862.88	16.48
1863.22	16.2
1863.56	17.16
1863.9	17.16
1864.24	18.52
1864.58	16
1864.92	13.64
1865.26	12.76
1865.6	12.16
1865.94	8
1866.29	7.68
1866.63	6.76
1866.97	6.04
1867.31	5.6
1867.65	5.84
1867.99	5.28
1868.33	6.04
1868.67	5.2
1869.01	4.76
1869.35	4.84
1869.69	6.28
1870.03	6.52
1870.37	9.08
1870.72	10.72
1871.06	10.92
1871.4	8.92
1871.74	7.4
1872.08	5.04
1872.42	4.56
1872.76	7.52
1873.1	9.04
1873.44	10.12
1873.78	9.88
1874.12	8.28
1874.46	5.08
1874.8	4.64
1875.14	5.92
1875.48	7.44
1875.82	7.6
1876.16	8
1876.5	7.68
1876.84	6.68
1877.18	6.04
1877.52	5.28
1877.86	4.24
1878.2	2.88
1878.54	1
1878.88	0
1879.22	0.36
1879.56	0.48
1879.9	0.04
1880.24	0.72
1880.58	0.48
1880.92	0.48
1881.26	0.72
1881.6	1.2
1881.94	0.72
1882.28	1.04
1882.62	1.28
1882.96	1.96
1883.3	3.04
1883.64	3.88
1883.98	4.56
1884.32	4.88
1884.66	4.64
1885	3.48
1885.34	3.16
1885.68	2.8
1886.02	2.2
1886.36	1.28
1886.7	1.52
1887.04	1.52
1887.38	0.92
1887.72	1.12
1888.06	0.48
1888.39	0.12
1888.73	-0.32
1889.07	2.88669e-17
1889.41	-0.08
1889.75	0.16
1890.09	0.96
1890.43	1.72
1890.77	1.76
1891.11	2.04
1891.45	2.4
1891.79	1.68
1892.13	0.92
1892.47	0.8
1892.8	0.68
1893.14	0.68
1893.48	0.24
1893.82	0.36
1894.16	0.4
1894.5	0.32
1894.84	0.52
1895.18	0.92
1895.52	0.96
1895.86	0.68
1896.19	0.52
1896.53	0.32
1896.87	0.28
1897.21	0.4
1897.55	0.44
1897.89	0.4
1898.23	0.64
1898.57	0.8
1898.9	0.48
1899.24	0.44
1899.58	0.68
1899.92	0.56
1900.26	0.48
1900.6	0.44
1900.94	0.36
1901.27	0.28
1901.61	0.32
1901.95	0.24
1902.29	0.24
1902.63	0.32
1902.97	0.28
1903.3	0.56
1903.64	0.56
1903.98	1.04
1904.32	1.04
1904.66	1.64
1905	1.44
1905.33	1.56
1905.67	1.08
1906.01	1.08
1906.35	0.44
1906.69	0.2
1907.02	0.24
1907.36	0.24
1907.7	0.24
1908.04	0.16
1908.38	0.56
1908.71	0.4
1909.05	0.4
1909.39	0.56
1909.73	0.56
1910.07	0.16
1910.4	0.44
1910.74	0.68
1911.08	0.6
1911.42	0.76
1911.76	0.76
1912.09	0.52
1912.43	0.28
1912.77	0.2
1913.11	0.24
1913.44	0.4
1913.78	0.04
1914.12	0.52
1914.46	0.6
1914.79	0.96
1915.13	0.88
1915.47	1.36
1915.81	1.08
1916.14	1.24
1916.48	1.2
1916.82	1.2
1917.16	0.44
1917.49	0.64
1917.83	0.6
1918.17	1.04
1918.5	1.16
1918.84	2.16
1919.18	2.56
1919.52	3.36
1919.85	2.92
1920.19	3.28
1920.53	3.24
1920.87	2.96
1921.2	3.32
1921.54	3.52
1921.88	3.96
1922.21	4
1922.55	4.84
1922.89	4.52
1923.22	4.16
1923.56	4.12
1923.9	4.12
1924.23	3.8
1924.57	2.96
1924.91	3.44
1925.25	4.2
1925.58	4.88
1925.92	5.48
1926.26	5.92
1926.59	6.84
1926.93	5.96
1927.27	6.52
1927.6	7.12
1927.94	8.64
1928.28	8.84
1928.61	9.28
1928.95	9.84
1929.29	9.76
1929.62	10.8
1929.96	10.72
1930.29	11.64
1930.63	12.24
1930.97	11.84
1931.3	10.52
1931.64	10.84
1931.98	11.44
1932.31	10
1932.65	10.64
1932.99	11.68
1933.32	11.52
1933.66	11.24
1933.99	13.28
1934.33	13.12
1934.67	13.6
1935	16
1935.34	17.44
1935.67	17.44
1936.01	18.92
1936.35	19.04
1936.68	18.36
1937.02	18.28
1937.35	18.72
1937.69	18.24
1938.03	18.76
1938.36	16.6
1938.7	17.04
1939.03	17.32
1939.37	20.76
1939.7	20.64
1940.04	23.72
1940.38	25.24
1940.71	25.4
1941.05	23.84
1941.38	25.48
1941.72	25.04
1942.05	24.2
1942.39	25.64
1942.73	25.76
1943.06	27
1943.4	28.12
1943.73	30.56
1944.07	31.08
1944.4	31.56
1944.74	31.32
1945.07	32.28
1945.41	30.96
1945.74	31.44
1946.08	33.16
1946.42	33.52
1946.75	35.72
1947.09	36.52
1947.42	37.12
1947.76	36.44
1948.09	37.28
1948.43	36.8
1948.76	36.88
1949.1	37.72
1949.43	40
1949.77	40.64
1950.1	40.32
1950.44	42.44
1950.77	42.6
1951.11	42.88
1951.44	42.48
1951.78	42.92
1952.11	41.92
1952.45	41.88
1952.78	40.32
1953.12	40.04
1953.45	41.08
1953.79	41.08
1954.12	39.88
1954.46	40.28
1954.79	40.12
1955.12	39.12
1955.46	39.36
1955.79	41.16
1956.13	40.92
1956.46	41.6
1956.8	40.84
1957.13	40.08
1957.47	40.4
1957.8	42.2
1958.14	41.84
1958.47	43.84
1958.8	44.36
1959.14	44.24
1959.47	42.36
1959.81	42.24
1960.14	40.92
1960.48	40.76
1960.81	39.76
1961.14	40.32
1961.48	41.76
1961.81	41.08
1962.15	41.32
1962.48	40.92
1962.82	38.84
1963.15	37.8
1963.48	38.52
1963.82	38.56
1964.15	37.32
1964.49	37.84
1964.82	37.16
1965.15	37.36
1965.49	36.16
1965.82	37.48
1966.16	38.6
1966.49	39.44
1966.82	38.88
1967.16	39.32
1967.49	38
1967.83	38.6
1968.16	36.8
1968.49	35.44
1968.83	35.16
1969.16	35.4
1969.49	32.96
1969.83	33.44
1970.16	33.68
1970.49	32.72
1970.83	32.96
1971.16	32.6
1971.5	31.92
1971.83	31.32
1972.16	30.88
1972.5	29.84
1972.83	28.96
1973.16	28.04
1973.5	26.84
1973.83	26.04
1974.16	24.08
1974.5	23.52
1974.83	22.52
1975.16	21
1975.5	20.04
1975.83	20.32
1976.16	19.84
1976.49	19.2
1976.83	18.64
1977.16	17.12
1977.49	16.56
1977.83	17.4
1978.16	16.08
1978.49	16.8
1978.83	16.96
1979.16	16.64
1979.49	14.36
1979.83	14.16
1980.16	12.08
1980.49	11
1980.82	9.56
1981.16	9.28
1981.49	8.6
1981.82	8.32
1982.15	8.72
1982.49	8.4
1982.82	6.92
1983.15	6.56
1983.49	6.16
1983.82	5.64
1984.15	5.24
1984.48	6.32
1984.82	5.88
1985.15	6.2
1985.48	5.12
1985.81	4.6
1986.15	3.32
1986.48	3.08
1986.81	2.4
1987.14	2
1987.48	1.84
1987.81	2.24
1988.14	1.92
1988.47	1.76
1988.81	2
1989.14	1.52
1989.47	0.88
1989.8	1.24
1990.13	1
1990.47	0.96
1990.8	0.96
1991.13	0.88
1991.46	0.52
1991.79	0.8
1992.13	-0.2
1992.46	0.08
1992.79	0.36
1993.12	0.48
1993.45	-0.4
1993.79	0.48
1994.12	0.2
1994.45	-0.08
1994.78	-0.32
1995.11	0.6
1995.45	0.64
1995.78	0.88
1996.11	0.88
1996.44	1.24
1996.77	0.92
1997.1	1
1997.44	0.84
1997.77	0.8
1998.1	0.6
1998.43	0.6
1998.76	0.72
1999.09	0.92
1999.43	0.12
1999.76	0.16
2000.09	0.32
2000.42	0.04
2000.75	-1.32
2001.08	-0.52
2001.41	-0.72
2001.75	-0.84
2002.08	-0.84
2002.41	0.28
2002.74	0.2
2003.07	0.4
2003.4	0.72
2003.73	0.68
2004.06	0.92
2004.4	1.2
2004.73	0.96
2005.06	0.48
2005.39	0.88
2005.72	0.52
2006.05	0.24
2006.38	0.2
2006.71	0.56
2007.04	0.16
2007.37	0.24
2007.71	0.24
2008.04	1.16
2008.37	1.36
2008.7	1.88
2009.03	2.56
2009.36	2.56
2009.69	2
2010.02	2.64
2010.35	2.44
2010.68	1.8
2011.01	2.04
2011.34	2.6
2011.67	1.52
2012.01	1.24
2012.34	2.12
2012.67	2.32
2013	1.96
2013.33	3
2013.66	3.44
2013.99	3.72
2014.32	4.4
2014.65	4.68
2014.98	4.16
2015.31	5.12
2015.64	4.24
2015.97	4.16
2016.3	4.32
2016.63	4.6
2016.96	3.52
2017.29	4.6
2017.62	5.32
2017.95	5
2018.28	6.28
2018.61	7.76
2018.94	8
2019.27	8.76
2019.6	9.72
2019.93	8.84
2020.26	8.8
2020.59	8.92
2020.92	7.84
2021.25	8.36
2021.58	8
2021.91	8.2
2022.24	7.52
2022.57	8.16
2022.9	8.68
2023.23	9.92
2023.56	10.68
2023.89	11.16
2024.22	10.72
2024.55	10.48
2024.88	9.68
2025.21	8.32
2025.54	9.28
2025.87	10.76
2026.2	10.48
2026.53	10.48
2026.86	11.28
2027.19	10.56
2027.52	8.72
2027.85	9.28
2028.18	10.96
2028.51	9.96
2028.84	8.92
2029.16	9.36
2029.49	8.6
2029.82	7.16
2030.15	7.68
2030.48	7.88
2030.81	8.4
2031.14	9.04
2031.47	8.6
2031.8	8.36
2032.13	9.68
2032.46	8.8
2032.79	7.04
2033.12	7.44
2033.44	8.44
2033.77	7.52
2034.1	7.48
2034.43	8.28
2034.76	8.44
2035.09	9
2035.42	10.48
2035.75	9.88
2036.08	9.08
2036.41	9.4
2036.73	8.92
2037.06	6.84
2037.39	6.72
2037.72	7.44
2038.05	6.92
2038.38	5.48
2038.71	5.24
2039.04	5
2039.36	5.4
2039.69	4.44
2040.02	4.28
2040.35	4.68
2040.68	5.52
2041.01	3.8
2041.34	4
2041.66	3.6
2041.99	3.92
2042.32	3.92
2042.65	4.56
2042.98	4.8
2043.31	5.72
2043.63	5.32
2043.96	4.4
2044.29	4.56
2044.62	4.04
2044.95	2.8
2045.28	2.28
2045.6	2.28
2045.93	1.92
2046.26	2.08
2046.59	2.44
2046.92	2.84
2047.24	2.68
2047.57	2.16
2047.9	1.76
2048.23	1.84
2048.56	1.72
2048.88	2.12
2049.21	1.96
2049.54	1.92
2049.87	1.28
2050.2	0.92
2050.52	0.64
2050.85	0.64
2051.18	0.6
2051.51	0.68
2051.83	0.72
2052.16	0.48
2052.49	1.04
2052.82	1
2053.15	1.24
2053.47	1.28
2053.8	1.72
2054.13	1.44
2054.46	1.4
2054.78	1.04
2055.11	1.12
2055.44	0.64
2055.77	0.36
2056.09	0.56
2056.42	0.68
2056.75	0.36
2057.08	0.92
2057.4	0.92
2057.73	0.84
2058.06	0.76
2058.38	0.76
2058.71	0.48
2059.04	0.6
2059.37	0.64
2059.69	0.64
2060.02	0.96
2060.35	0.76
2060.67	0.84
2061	0.76
2061.33	0.64
2061.66	0.24
2061.98	0.36
2062.31	0.24
2062.64	0.4
2062.96	0.64
2063.29	0.88
2063.62	0.72
2063.94	0.84
2064.27	1.2
2064.6	0.24
2064.92	0
2065.25	0.12
2065.58	0.2
2065.91	-0.32
2066.23	0.56
2066.56	0.6
2066.89	0.6
2067.21	0.32
2067.54	0.44
2067.87	0.48
2068.19	0.68
2068.52	0.56
2068.84	0.84
2069.17	0.92
2069.5	0.8
2069.82	0.48
2070.15	0.48
2070.48	0.56
2070.8	0.36
2071.13	0.4
2071.46	0.64
2071.78	0.72
2072.11	0.44
2072.43	0.36
2072.76	0.32
2073.09	0.68
2073.41	1.32
2073.74	1.28
2074.07	2.12
2074.39	2.32
2074.72	2
2075.04	1.4
2075.37	1.6
2075.7	0.8
2076.02	0.64
2076.35	0.44
2076.67	0.56
2077	0.68
2077.33	0.92
2077.65	1.04
2077.98	1.48
2078.3	1.28
2078.63	0.92
2078.95	0.68
2079.28	1
2079.61	0.16
2079.93	0.24
2080.26	0.28
2080.58	0.32
2080.91	1.44334e-17
2081.23	0.48
2081.56	0.68
2081.89	1.08
2082.21	1.04
2082.54	0.88
2082.86	1
2083.19	0.76
2083.51	0.4
2083.84	0.52
2084.16	0.76
2084.49	0.76
2084.81	0.88
2085.14	1.24
2085.46	1.84
2085.79	1.68
2086.12	1.6
2086.44	1.6
2086.77	1.72
2087.09	1.12
2087.42	1.16
2087.74	1.04
2088.07	0.88
2088.39	1
2088.72	0.84
2089.04	0.72
2089.37	0.72
2089.69	0.92
2090.02	0.52
2090.34	0.16
2090.67	0.24
2090.99	-1.76
2091.32	-1.96
2091.64	-2.24
2091.97	-1.72
2092.29	-1.8
2092.62	0.64
2092.94	1.52
2093.26	1.6
2093.59	1.52
2093.91	0.6
2094.24	0.32
2094.56	-0.6
2094.89	-0.56
2095.21	-0.08
2095.54	1.2
2095.86	1.04
2096.19	1.04
2096.51	1
2096.84	0.64
2097.16	0.28
2097.48	0.68
2097.81	0.84
2098.13	0.76
2098.46	0.56
2098.78	0.56
2099.11	0.16
2099.43	0
2099.75	0.24
2100.08	0.24
2100.4	0.36
2100.73	0.52
2101.05	0.8
2101.38	0.68
2101.7	0.92
2102.02	1.32
2102.35	1.24
2102.67	1.24
2103	1.2
2103.32	0.96
2103.64	0.52
2103.97	0.6
2104.29	0.32
2104.62	0.36
2104.94	0.4
2105.26	0.08
2105.59	0.08
2105.91	0.24
2106.23	0.12
2106.56	0.2
2106.88	0.44
2107.21	0.72
2107.53	0.64
2107.85	0.64
2108.18	0.52
2108.5	0.8
2108.82	0.44
2109.15	0.4
2109.47	0.4
2109.79	0.44
2110.12	0.2
2110.44	0.12
2110.76	0.24
2111.09	0.24
2111.41	0.36
2111.73	0.6
2112.06	0.76
2112.38	0.8
2112.7	0.6
2113.03	0.48
2113.35	0.2
2113.67	0.16
2114	3.60836e-18
2114.32	0.2
2114.64	0.48
2114.97	0.84
2115.29	0.92
2115.61	0.88
2115.94	1.08
2116.26	0.76
2116.58	0.56
2116.91	-0.64
2117.23	-0.64
2117.55	-0.84
2117.87	-0.8
2118.2	-0.96
2118.52	0.08
2118.84	0.08
2119.17	0.2
2119.49	0.36
2119.81	0.48
2120.13	0.52
2120.46	0.52
2120.78	-0.6
2121.1	-0.8
2121.42	-0.92
2121.75	-0.76
2122.07	-0.76
2122.39	0.24
2122.72	0.84
2123.04	0.84
2123.36	0.6
2123.68	0.96
2124.01	1
2124.33	0.48
2124.65	0.6
2124.97	1.04
2125.29	0.96
2125.62	1.24
2125.94	1.16
2126.26	1.24
2126.58	0.96
2126.91	-0.24
2127.23	-0.44
2127.55	-0.44
2127.87	-0.52
2128.2	-0.68
2128.52	0.24
2128.84	0.2
2129.16	0.24
2129.48	0.12
2129.81	0.12
2130.13	0.24
2130.45	0.16
2130.77	0.44
2131.09	0.96
2131.42	1.08
2131.74	1.24
2132.06	1.24
2132.38	0.92
2132.7	0.48
2133.02	0.44
2133.35	0.24
2133.67	0.44
2133.99	0.44
2134.31	-0.04
2134.63	-0.04
2134.96	-0.12
2135.28	2.88669e-17
2135.6	0.52
2135.92	1.32
2136.24	1.36
2136.56	1.76
2136.88	1.44
2137.21	1.24
2137.53	0.96
2137.85	1
2138.17	0.12
2138.49	0.16
2138.81	4.2189e-17
2139.13	-0.12
2139.46	-0.28
2139.78	0.36
2140.1	0.32
2140.42	0.36
2140.74	0.92
2141.06	0.92
2141.38	0.76
2141.7	0.92
2142.03	0.72
2142.35	0.4
2142.67	0.92
2142.99	0.92
2143.31	1.04
2143.63	1.08
2143.95	1.2
2144.27	0.92
2144.59	0.92
2144.91	1
2145.24	1.08
2145.56	0.8
2145.88	0.64
2146.2	0.84
2146.52	0.64
2146.84	0.88
2147.16	0.8
2147.48	0.8
2147.8	0.68
2148.12	0.52
2148.44	0.16
2148.76	0.16
2149.08	0.12
2149.41	0.24
2149.73	0.28
2150.05	0.36
2150.37	0.48
2150.69	0.52
2151.01	0.8
2151.33	0.76
2151.65	1.04
2151.97	1.08
2152.29	1
2152.61	0.36
2152.93	0.36
2153.25	0.28
2153.57	0.36
2153.89	0.36
2154.21	0.36
2154.53	0.48
2154.85	0.2
2155.17	-2.41472e-17
2155.49	0.24
2155.81	0.4
2156.13	0.28
2156.45	0.28
2156.77	0.24
2157.09	0.12
2157.41	0.16
2157.73	0.16
2158.05	0.24
2158.37	0.24
2158.69	0.32
2159.01	0.44
2159.33	0.44
2159.65	0.76
2159.97	0.76
2160.29	0.56
2160.61	0.72
2160.93	0.84
2161.25	0.6
2161.57	0.68
2161.89	0.96
2162.21	0.72
2162.53	0.68
2162.85	-0.08
2163.17	0.2
2163.49	3.49723e-17
2163.81	0.12
2164.13	0.04
2164.45	0.04
2164.77	-0.08
2165.08	-0.16
2165.4	-0.16
2165.72	0.08
2166.04	0.68
2166.36	0.48
2166.68	0.48
2167	0.88
2167.32	0.64
2167.64	0.72
2167.96	0.88
2168.28	0.88
2168.6	0.28
2168.92	0.4
2169.24	0.56
2169.55	0.44
2169.87	0.56
2170.19	0.56
2170.51	0.44
2170.83	0.32
2171.15	0.36
2171.47	0.32
2171.79	0.32
2172.11	0.4
2172.43	0.28
2172.74	0.2
2173.06	0.12
2173.38	0.12
2173.7	0.28
2174.02	0.36
2174.34	0.32
2174.66	0.36
2174.98	0.36
2175.29	0.12
2175.61	0.04
2175.93	0.08
2176.25	0.52
2176.57	0.68
2176.89	1
2177.21	1.36
2177.52	1.32
2177.84	0.84
2178.16	0.96
2178.48	0.68
2178.8	0.32
2179.12	0.64
2179.43	0.8
2179.75	-0.48
2180.07	-0.4
2180.39	-0.16
2180.71	-0.48
2181.03	-0.64
2181.34	0.36
2181.66	0.24
2181.98	0
2182.3	0
2182.62	0.24
2182.93	-0.12
2183.25	-0.04
2183.57	0.12
2183.89	0.12
2184.21	-0.08
2184.52	0.32
2184.84	0.52
2185.16	0.44
2185.48	0.64
2185.8	0.6
2186.11	0.56
2186.43	0.32
2186.75	0.24
2187.07	-0.2
2187.39	-0.88
2187.7	-0.8
2188.02	-1.36
2188.34	-1.04
2188.66	-0.44
2188.97	0.44
2189.29	0.36
2189.61	0.88
2189.93	0.56
2190.24	0.28
2190.56	0.24
2190.88	0.24
2191.2	0.28
2191.51	0.44
2191.83	0.4
2192.15	0.28
2192.47	0.28
2192.78	0.4
2193.1	0.24
2193.42	0.24
2193.74	0.2
2194.05	0.24
2194.37	0.16
2194.69	0.16
2195	0.08
2195.32	0.08
2195.64	0.2
2195.96	0.12
2196.27	0.36
2196.59	-0.2
2196.91	-0.2
2197.22	-0.32
2197.54	-0.2
2197.86	-0.36
2198.18	0.24
2198.49	0.24
2198.81	0.32
2199.13	0.36
2199.44	0.4
2199.76	0.72
2200.08	0.72
2200.39	0.64
2200.71	0.64
2201.03	0.52
2201.34	0.88
2201.66	1
2201.98	0.96
2202.29	0.8
2202.61	1.12
2202.93	0.44
2203.24	0.36
2203.56	0.44
2203.88	0.44
2204.19	0.12
2204.51	0.12
2204.83	0.08
2205.14	0
2205.46	0.2
2205.78	0.36
2206.09	0.44
2206.41	0.28
2206.72	0.16
2207.04	-0.04
2207.36	-0.52
2207.67	-0.6
2207.99	-0.44
2208.31	-0.32
2208.62	-0.28
2208.94	0.2
2209.25	0.44
2209.57	0.44
2209.89	0.44
2210.2	0.4
2210.52	0.4
2210.83	0.32
2211.15	0.36
2211.47	0.48
2211.78	0.48
2212.1	-0.08
2212.41	-1.44334e-17
2212.73	-0.04
2213.05	0.04
2213.36	0.04
2213.68	0.48
2213.99	0.32
2214.31	0.48
2214.62	0.36
2214.94	0.48
2215.26	0.48
2215.57	0.44
2215.89	0.84
2216.2	0.84
2216.52	0.8
2216.83	0.84
2217.15	0.8
2217.46	0.32
2217.78	0.24
2218.1	0.08
2218.41	0.04
2218.73	0.08
2219.04	0.24
2219.36	0.32
2219.67	0.4
2219.99	0.52
2220.3	0.56
2220.62	0.32
2220.93	0.4
2221.25	0.48
2221.56	0.4
2221.88	0.32
2222.19	0.32
2222.51	0.16
2222.82	-1.28
2223.14	-1.36
2223.45	-1.36
2223.77	-1.2
2224.08	-1.16
2224.4	0.4
2224.71	0.4
2225.03	0.48
2225.34	0.32
2225.66	-0.4
2225.97	-0.6
2226.29	-0.52
2226.6	-0.6
2226.92	-0.48
2227.23	0.32
2227.55	0.44
2227.86	0.4
2228.18	0.4
2228.49	0.28
2228.81	0.56
2229.12	0.44
2229.44	0.52
2229.75	0.6
2230.07	0.6
2230.38	0.36
2230.69	0.48
2231.01	0.36
2231.32	0.28
2231.64	0.28
2231.95	0.16
2232.27	0.08
2232.58	0.16
2232.9	0.2
2233.21	0.2
2233.52	0.2
2233.84	0.16
2234.15	0.24
2234.47	0.2
2234.78	0.2
2235.1	0.48
2235.41	0.6
2235.72	0.44
2236.04	0.56
2236.35	0.56
2236.67	-0.36
2236.98	-0.12
2237.29	-0.04
2237.61	-0.16
2237.92	-0.12
2238.24	0.72
2238.55	0.44
2238.86	0.44
2239.18	0.48
2239.49	-0.36
2239.8	-0.6
2240.12	-0.6
2240.43	-0.48
2240.75	-0.44
2241.06	1
2241.37	1
2241.69	1.08
2242	0.88
2242.31	0.84
2242.63	0.2
2242.94	0.2
2243.26	-0.36
2243.57	-0.2
2243.88	-0.24
2244.2	-0.2
2244.51	-0.2
2244.82	0.2
2245.14	0.04
2245.45	0.04
2245.76	0
2246.08	0.2
2246.39	0.28
2246.7	0.64
2247.02	0.96
2247.33	0.96
2247.64	0.8
2247.96	0.72
2248.27	0.64
2248.58	-0.6
2248.9	-0.44
2249.21	-0.48
2249.52	-0.48
2249.83	-0.44
2250.15	0.48
2250.46	1.08
2250.77	1.2
2251.09	1.36
2251.4	1.04
2251.71	1.04
2252.03	0.28
2252.34	0.36
2252.65	0.28
2252.96	0.48
2253.28	0.56
2253.59	0.64
2253.9	0.44
2254.21	0.6
2254.53	0.4
2254.84	-0.08
2255.15	-0.08
2255.47	0.24
2255.78	0.2
2256.09	0.2
2256.4	0.72
2256.72	0.64
2257.03	0.6
2257.34	0.4
2257.65	0.4
2257.97	0.52
2258.28	0.64
2258.59	0.48
2258.9	0.76
2259.22	0.96
2259.53	0.72
2259.84	0.6
2260.15	0.88
2260.46	0.6
2260.78	0.68
2261.09	0.68
2261.4	0.68
2261.71	0.56
2262.03	0.56
2262.34	0.36
2262.65	0.64
2262.96	0.8
2263.27	0.68
2263.59	0.68
2263.9	0.6
2264.21	0.68
2264.52	0.52
2264.83	0.4
2265.15	0.52
2265.46	0.52
2265.77	0.32
2266.08	0.48
2266.39	0.8
2266.7	0.8
2267.02	0.92
2267.33	0.36
2267.64	0.2
2267.95	-0.16
2268.26	-0.2
2268.57	-0.32
2268.89	0.16
2269.2	0.28
2269.51	0.28
2269.82	0.2
2270.13	0.2
2270.44	0.16
2270.76	-0.32
2271.07	-0.32
2271.38	-0.84
2271.69	-0.8
2272	-0.8
2272.31	-0.48
2272.62	-1.28
2272.93	-0.68
2273.25	-0.72
2273.56	-0.72
2273.87	-0.64
2274.18	0.16
2274.49	0.16
2274.8	0.16
2275.11	0.12
2275.42	0.16
2275.74	0.16
2276.05	0.08
2276.36	0.76
2276.67	0.76
2276.98	0.72
2277.29	1.08
2277.6	1.16
2277.91	0.52
2278.22	0.28
2278.53	0.36
2278.85	2.05389e-17
2279.16	-0.8
2279.47	-0.84
2279.78	-0.6
2280.09	-0.72
2280.4	-0.72
2280.71	0.08
2281.02	0.12
2281.33	0.12
2281.64	0.12
2281.95	0.2
2282.26	0.12
2282.57	0.08
2282.88	0.08
2283.19	0.08
2283.5	0.16
2283.82	0.16
2284.13	0.16
2284.44	0.28
2284.75	-0.04
2285.06	0.04
2285.37	0.12
2285.68	0.12
2285.99	0.08
2286.3	0.44
2286.61	0.2
2286.92	0.2
2287.23	0.32
2287.54	0.32
2287.85	0.84
2288.16	0.84
2288.47	0.76
2288.78	0.68
2289.09	0.68
2289.4	0.12
2289.71	0.12
2290.02	0.32
2290.33	0.28
2290.64	0.36
2290.95	0.16
2291.26	0.16
2291.57	-0.04
2291.88	-0.44
2292.19	-0.48
2292.5	-0.28
2292.81	-0.28
2293.12	-0.28
2293.43	0.12
2293.74	0
2294.05	0
2294.36	0
2294.67	0
2294.98	0
2295.29	0
2295.6	0
2295.91	0
2296.21	0
2296.52	0
2296.83	0
2297.14	0
2297.45	0
2297.76	0
2298.07	0
2298.38	0
2298.69	0
2299	0
2299.31	0
2299.62	0
2299.93	0
2300.24	0
2300.55	0
2300.85	0
2301.16	0
2301.47	0
2301.78	0
2302.09	0
2302.4	0
2302.71	0
2303.02	0
2303.33	0
2303.64	0
2303.94	0
2304.25	0
2304.56	0
2304.87	0
2305.18	0
2305.49	0
2305.8	0
2306.11	0
2306.42	0
2306.72	0
2307.03	0
2307.34	0
2307.65	0
2307.96	0
2308.27	0
2308.58	0
2308.88	0
2309.19	0
2309.5	0
2309.81	0
2310.12	0
2310.43	0
2310.74	0
2311.04	0
2311.35	0
2311.66	0
2311.97	0
2312.28	0
2312.59	0
2312.89	0
2313.2	0
2313.51	0
2313.82	0
2314.13	0
2314.43	0
2314.74	0
2315.05	0
2315.36	0
2315.67	0
2315.97	0
2316.28	0
2316.59	0
2316.9	0
2317.21	0
2317.51	0
2317.82	0
2318.13	0
2318.44	0
2318.75	0
2319.05	0
2319.36	0
2319.67	0
2319.98	0
2320.28	0
2320.59	0
2320.9	0
2321.21	0
2321.51	0
2321.82	0
2322.13	0
2322.44	0
2322.74	0
2323.05	0
2323.36	0
2323.67	0
2323.97	0
2324.28	0
2324.59	0
2324.9	0
2325.2	0
2325.51	0
2325.82	0
2326.13	0
2326.43	0
2326.74	0
2327.05	0
2327.35	0
2327.66	0
2327.97	0
2328.27	0
2328.58	0
2328.89	0
2329.2	0
2329.5	0
2329.81	0
2330.12	0
2330.42	0
2330.73	0
2331.04	0
2331.34	0
2331.65	0
2331.96	0
2332.26	0
2332.57	0
2332.88	0
2333.18	0
2333.49	0
2333.8	0
2334.1	0
2334.41	0
2334.72	0
2335.02	0
2335.33	0
2335.64	0
2335.94	0
2336.25	0
2336.56	0
2336.86	0
2337.17	0
2337.48	0
2337.78	0
2338.09	0
2338.39	0
2338.7	0
2339.01	0
2339.31	0
2339.62	0
2339.93	0
2340.23	0
2340.54	0
2340.84	0
2341.15	0
2341.46	0
2341.76	0
2342.07	0
2342.37	0
2342.68	0
2342.99	0
2343.29	0
2343.6	0
2343.9	0
2344.21	0
2344.51	0
2344.82	0
2345.13	0
2345.43	0
2345.74	0
2346.04	0
2346.35	0
2346.65	0
2346.96	0
2347.27	0
2347.57	0
2347.88	0
2348.18	0
2348.49	0
2348.79	0
2349.1	0
2349.4	0
2349.71	0
2350.01	0
2350.32	0
2350.63	0
2350.93	0
2351.24	0
2351.54	0
2351.85	0
2352.15	0
2352.46	0
2352.76	0
2353.07	0
2353.37	0
2353.68	0
2353.98	0
2354.29	0
2354.59	0
2354.9	0
2355.2	0
2355.51	0
2355.81	0
2356.12	0
2356.42	0
2356.73	0
2357.03	0
2357.34	0
2357.64	0
2357.95	0
2358.25	0
2358.55	0
2358.86	0
2359.16	0
2359.47	0
2359.77	0
2360.08	0
2360.38	0
2360.69	0
2360.99	0
2361.3	0
2361.6	0
2361.9	0
2362.21	0
2362.51	0
2362.82	0
2363.12	0
2363.43	0
2363.73	0
2364.04	0
2364.34	0
2364.64	0
2364.95	0
2365.25	0
2365.56	0
2365.86	0
2366.16	0
2366.47	0
2366.77	0
2367.08	0
2367.38	0
2367.68	0
2367.99	0
2368.29	0
2368.6	0
2368.9	0
2369.2	0
2369.51	0
2369.81	0
2370.12	0
2370.42	0
2370.72	0
2371.03	0
2371.33	0
2371.63	0
2371.94	0
2372.24	0
2372.55	0
2372.85	0
2373.15	0
2373.46	0
2373.76	0
2374.06	0
2374.37	0
2374.67	0
2374.97	0
2375.28	0
2375.58	0
2375.88	0
2376.19	0
2376.49	0
2376.79	0
2377.1	0
2377.4	0
2377.7	0
2378.01	0
2378.31	0
2378.61	0
2378.92	0
2379.22	0
2379.52	0
2379.82	0
2380.13	0
2380.43	0
2380.73	0
2381.04	0
2381.34	0
2381.64	0
2381.95	0
2382.25	0
2382.55	0
2382.85	0
2383.16	0
2383.46	0
2383.76	0
2384.06	0
2384.37	0
2384.67	0
2384.97	0
2385.28	0
2385.58	0
2385.88	0
2386.18	0
2386.49	0
2386.79	0
2387.09	0
2387.39	0
2387.69	0
2388	0
2388.3	0
2388.6	0
2388.9	0
2389.21	0
2389.51	0
2389.81	0
2390.11	0
2390.42	0
2390.72	0
2391.02	0
2391.32	0
2391.62	0
2391.93	0
2392.23	0
2392.53	0
2392.83	0
2393.13	0
2393.44	0
2393.74	0
2394.04	0
2394.34	0
2394.64	0
2394.95	0
2395.25	0
2395.55	0
2395.85	0
2396.15	0
2396.45	0
2396.76	0
2397.06	0
2397.36	0
2397.66	0
2397.96	0
2398.26	0
2398.57	0
2398.87	0
2399.17	0
2399.47	0
2399.77	0
2400.07	0
2400.37	0
2400.68	0
2400.98	0
2401.28	0
2401.58	0
2401.88	0
2402.18	0
2402.48	0
2402.79	0
2403.09	0
2403.39	0
2403.69	0
2403.99	0
2404.29	0
2404.59	0
2404.89	0
2405.19	0
2405.5	0
2405.8	0
2406.1	0
2406.4	0
2406.7	0
2407	0
2407.3	0
2407.6	0
2407.9	0
2408.2	0
2408.5	0
2408.8	0
2409.11	0
2409.41	0
2409.71	0
2410.01	0
2410.31	0
2410.61	0
2410.91	0
2411.21	0
2411.51	0
2411.81	0
2412.11	0
2412.41	0
2412.71	0
2413.01	0
2413.31	0
2413.61	0
2413.91	0
2414.21	0
2414.51	0
2414.81	0
2415.12	0
2415.42	0
2415.72	0
2416.02	0
2416.32	0
2416.62	0
2416.92	0
2417.22	0
2417.52	0
2417.82	0
2418.12	0
2418.42	0
2418.72	0
2419.02	0
2419.32	0
2419.62	0
2419.92	0
2420.22	0
2420.52	0
2420.82	0
2421.12	0
2421.42	0
2421.71	0
2422.01	0
2422.31	0
2422.61	0
2422.91	0
2423.21	0
2423.51	0
2423.81	0
2424.11	0
2424.41	0
2424.71	0
2425.01	0
2425.31	0
2425.61	0
2425.91	0
2426.21	0
2426.51	0
2426.81	0
2427.11	0
2427.41	0
2427.7	0
2428	0
2428.3	0
2428.6	0
2428.9	0
2429.2	0
2429.5	0
2429.8	0
2430.1	0
2430.4	0
2430.7	0
2430.99	0
2431.29	0
2431.59	0
2431.89	0
2432.19	0
2432.49	0
2432.79	0
2433.09	0
2433.39	0
2433.68	0
2433.98	0
2434.28	0
2434.58	0
2434.88	0
2435.18	0
2435.48	0
2435.78	0
2436.07	0
2436.37	0
2436.67	0
2436.97	0
2437.27	0
2437.57	0
2437.86	0
2438.16	0
2438.46	0
2438.76	0
2439.06	0
2439.36	0
2439.66	0
2439.95	0
2440.25	0
2440.55	0
2440.85	0
2441.15	0
2441.44	0
2441.74	0
2442.04	0
2442.34	0
2442.64	0
2442.93	0
2443.23	0
2443.53	0
2443.83	0
2444.13	0
2444.42	0
2444.72	0
2445.02	0
2445.32	0
2445.62	0
2445.91	0
2446.21	0
2446.51	0
2446.81	0
2447.1	0
2447.4	0
2447.7	0
2448	0
2448.3	0
2448.59	0
2448.89	0
2449.19	0
2449.49	0
2449.78	0
2450.08	0
2450.38	0
2450.68	0
2450.97	0
2451.27	0
2451.57	0
2451.87	0
2452.16	0
2452.46	0
2452.76	0
2453.05	0
2453.35	0
2453.65	0
2453.95	0
2454.24	0
2454.54	0
2454.84	0
2455.13	0
2455.43	0
2455.73	0
2456.03	0
2456.32	0
2456.62	0
2456.92	0
2457.21	0
2457.51	0
2457.81	0
2458.1	0
2458.4	0
2458.7	0
2458.99	0
2459.29	0
2459.59	0
2459.88	0
2460.18	0
2460.48	0
2460.77	0
2461.07	0
2461.37	0
2461.66	0
2461.96	0
2462.26	0
2462.55	0
2462.85	0
2463.15	0
2463.44	0
2463.74	0
2464.04	0
2464.33	0
2464.63	0
2464.92	0
2465.22	0
2465.52	0
2465.81	0
2466.11	0
2466.41	0
2466.7	0
2467	0
2467.29	0
2467.59	0
2467.89	0
2468.18	0
2468.48	0
2468.77	0
2469.07	0
2469.37	0
2469.66	0
2469.96	0
2470.25	0
2470.55	0
2470.84	0
2471.14	0
2471.44	0
2471.73	0
2472.03	0
2472.32	0
2472.62	0
2472.91	0
2473.21	0
2473.51	0
2473.8	0
2474.1	0
2474.39	0
2474.69	0
2474.98	0
2475.28	0
2475.57	0
2475.87	0
2476.17	0
2476.46	0
2476.76	0
2477.05	0
2477.35	0
2477.64	0
2477.94	0
2478.23	0
2478.53	0
2478.82	0
2479.12	0
2479.41	0
2479.71	0
2480	0
2480.3	0
2480.59	0
2480.89	0
2481.18	0
2481.48	0
2481.77	0
2482.07	0
2482.36	0
2482.66	0
2482.95	0
2483.25	0
2483.54	0
2483.84	0
2484.13	0
2484.43	0
2484.72	0
2485.02	0
2485.31	0
2485.6	0
2485.9	0
2486.19	0
2486.49	0
2486.78	0
2487.08	0
2487.37	0
2487.67	0
2487.96	0
2488.26	0
2488.55	0
2488.84	0
2489.14	0
2489.43	0
2489.73	0
2490.02	0
2490.32	0
2490.61	0
2490.9	0
2491.2	0
2491.49	0
2491.79	0
2492.08	0
2492.37	0
2492.67	0
2492.96	0
2493.26	0
2493.55	0
2493.84	0
2494.14	0
2494.43	0
2494.73	0
2495.02	0
2495.31	0
2495.61	0
2495.9	0
2496.2	0
2496.49	0
2496.78	0
2497.08	0
2497.37	0
2497.66	0
2497.96	0
2498.25	0
2498.54	0
2498.84	0
2499.13	0
2499.43	0
2499.72	0
2500.01	0
2500.31	0
2500.6	0
2500.89	0
2501.19	0
2501.48	0
2501.77	0
2502.07	0
2502.36	0
2502.65	0
2502.95	0
2503.24	0
2503.53	0
2503.82	0
2504.12	0
2504.41	0
2504.7	0
2505	0
2505.29	0
2505.58	0
2505.88	0
2506.17	0
2506.46	0
2506.76	0
2507.05	0
2507.34	0
2507.63	0
2507.93	0
2508.22	0
2508.51	0
2508.8	0
2509.1	0
2509.39	0
2509.68	0
2509.98	0
2510.27	0
2510.56	0
2510.85	0
2511.15	0
2511.44	0
2511.73	0
2512.02	0
2512.32	0
2512.61	0
2512.9	0
2513.19	0
2513.49	0
2513.78	0
2514.07	0
2514.36	0
2514.65	0
2514.95	0
2515.24	0
2515.53	0
2515.82	0
2516.12	0
2516.41	0
2516.7	0
2516.99	0
2517.28	0
2517.58	0
2517.87	0
2518.16	0
2518.45	0
2518.74	0
2519.04	0
2519.33	0
2519.62	0
2519.91	0
2520.2	0
2520.5	0
2520.79	0
2521.08	0
2521.37	0
2521.66	0
2521.95	0
2522.25	0
2522.54	0
2522.83	0
2523.12	0
2523.41	0
2523.7	0
2523.99	0
2524.29	0
2524.58	0
2524.87	0
2525.16	0
2525.45	0
2525.74	0
2526.03	0
2526.33	0
2526.62	0
2526.91	0
2527.2	0
2527.49	0
2527.78	0
2528.07	0
2528.36	0
2528.66	0
2528.95	0
2529.24	0
2529.53	0
2529.82	0
2530.11	0
2530.4	0
2530.69	0
2530.98	0
2531.27	0
2531.57	0
2531.86	0
2532.15	0
2532.44	0
2532.73	0
2533.02	0
2533.31	0
2533.6	0
2533.89	0
2534.18	0
2534.47	0
2534.76	0
2535.05	0
2535.35	0
2535.64	0
2535.93	0
2536.22	0
2536.51	0
2536.8	0
2537.09	0
2537.38	0
2537.67	0
2537.96	0
2538.25	0
2538.54	0
2538.83	0
2539.12	0
2539.41	0
2539.7	0
2539.99	0
2540.28	0
2540.57	0
2540.86	0
2541.15	0
2541.44	0
2541.73	0
2542.02	0
2542.31	0
2542.6	0
2542.89	0
2543.18	0
2543.47	0
2543.76	0
2544.05	0
2544.34	0
2544.63	0
2544.92	0
2545.21	0
2545.5	0
2545.79	0
2546.08	0
2546.37	0
2546.66	0
2546.95	0
2547.24	0
2547.53	0
2547.82	0
2548.11	0
2548.4	0
2548.69	0
2548.98	0
2549.27	0
2549.55	0
2549.84	0
2550.13	0
2550.42	0
2550.71	0
2551	0
2551.29	0
2551.58	0
2551.87	0
2552.16	0
2552.45	0
2552.74	0
2553.03	0
2553.31	0
2553.6	0
2553.89	0
2554.18	0
2554.47	0
2554.76	0
2555.05	0
2555.34	0
2555.63	0
2555.92	0
2556.2	0
2556.49	0
2556.78	0
2557.07	0
2557.36	0
2557.65	0
2557.94	0
2558.23	0
2558.51	0
2558.8	0
2559.09	0
2559.38	0
2559.67	0
2559.96	0
2560.25	0
2560.53	0
2560.82	0
2561.11	0
2561.4	0
2561.69	0
2561.98	0
2562.27	0
2562.55	0
2562.84	0
2563.13	0
2563.42	0
2563.71	0
2564	0
2564.28	0
2564.57	0
2564.86	0
2565.15	0
2565.44	0
2565.72	0
2566.01	0
2566.3	0
2566.59	0
2566.88	0
2567.16	0
2567.45	0
2567.74	0
2568.03	0
2568.32	0
2568.6	0
2568.89	0
2569.18	0
2569.47	0
2569.75	0

