Source: Spectrum Viewer

Chart: Pulse Spectrum

Series: 
Wavelength (nm)	S (a.u.)
1179.9	0
1180.29	0
1180.68	0
1181.06	0
1181.45	0
1181.83	0
1182.22	0
1182.6	0
1182.99	0
1183.38	0
1183.76	0
1184.15	0
1184.53	0
1184.92	0
1185.3	0
1185.69	0
1186.07	0
1186.46	0
1186.85	0
1187.23	0
1187.62	0
1188	0
1188.39	0
1188.77	0
1189.16	0
1189.54	0
1189.93	0
1190.31	0
1190.7	0
1191.08	0
1191.47	0
1191.85	0
1192.24	0
1192.62	0
1193.01	0
1193.39	0
1193.78	0
1194.16	0
1194.55	0
1194.93	0
1195.32	0
1195.7	0
1196.09	0
1196.47	0
1196.86	0
1197.24	0
1197.63	0
1198.01	0
1198.4	0
1198.78	0
1199.16	0
1199.55	0
1199.93	0
1200.32	0
1200.7	0
1201.09	0
1201.47	0
1201.86	0
1202.24	0
1202.63	0
1203.01	0
1203.39	0
1203.78	0
1204.16	0
1204.55	0
1204.93	0
1205.32	0
1205.7	0
1206.08	0
1206.47	0
1206.85	0
1207.24	0
1207.62	0
1208	0
1208.39	0
1208.77	0
1209.16	0
1209.54	0
1209.92	0
1210.31	0
1210.69	0
1211.08	0
1211.46	0
1211.84	0
1212.23	0
1212.61	0
1213	0
1213.38	0
1213.76	0
1214.15	0
1214.53	0
1214.91	0
1215.3	0
1215.68	0
1216.06	0
1216.45	0
1216.83	0
1217.22	0
1217.6	0
1217.98	0
1218.37	0
1218.75	0
1219.13	0
1219.52	0
1219.9	0
1220.28	0
1220.67	0
1221.05	0
1221.43	0
1221.82	0
1222.2	0
1222.58	0
1222.97	0
1223.35	0
1223.73	0
1224.11	0
1224.5	0
1224.88	0
1225.26	0
1225.65	0
1226.03	0
1226.41	0
1226.8	0
1227.18	0
1227.56	0
1227.94	0
1228.33	0
1228.71	0
1229.09	0
1229.47	0
1229.86	0
1230.24	0
1230.62	0
1231.01	0
1231.39	0
1231.77	0
1232.15	0
1232.54	0
1232.92	0
1233.3	0
1233.68	0
1234.07	0
1234.45	0
1234.83	0
1235.21	0
1235.6	0
1235.98	0
1236.36	0
1236.74	0
1237.12	0
1237.51	0
1237.89	0
1238.27	0
1238.65	0
1239.04	0
1239.42	0
1239.8	0
1240.18	0
1240.56	0
1240.95	0
1241.33	0
1241.71	0
1242.09	0
1242.47	0
1242.86	0
1243.24	0
1243.62	0
1244	0
1244.38	0
1244.77	0
1245.15	0
1245.53	0
1245.91	0
1246.29	0
1246.67	0
1247.06	0
1247.44	0
1247.82	0
1248.2	0
1248.58	0
1248.96	0
1249.34	0
1249.73	0
1250.11	0
1250.49	0
1250.87	0
1251.25	0
1251.63	0
1252.01	0
1252.4	0
1252.78	0
1253.16	0
1253.54	0
1253.92	0
1254.3	0
1254.68	0
1255.06	0
1255.45	0
1255.83	0
1256.21	0
1256.59	0
1256.97	0
1257.35	0
1257.73	0
1258.11	0
1258.49	0
1258.87	0
1259.26	0
1259.64	0
1260.02	0
1260.4	0
1260.78	0
1261.16	0
1261.54	0
1261.92	0
1262.3	0
1262.68	0
1263.06	0
1263.44	0
1263.82	0
1264.21	0
1264.59	0
1264.97	0
1265.35	0
1265.73	0
1266.11	0
1266.49	0
1266.87	0
1267.25	0
1267.63	0
1268.01	0
1268.39	0
1268.77	0
1269.15	0
1269.53	0
1269.91	0
1270.29	0
1270.67	0
1271.05	0
1271.43	0
1271.81	0
1272.19	0
1272.57	0
1272.95	0
1273.33	0
1273.71	0
1274.09	0
1274.47	0
1274.85	0
1275.23	0
1275.61	0
1275.99	0
1276.37	0
1276.75	0
1277.13	0
1277.51	0
1277.89	0
1278.27	0
1278.65	0
1279.03	0
1279.41	0
1279.79	0
1280.17	0
1280.55	0
1280.93	0
1281.31	0
1281.69	0
1282.07	0
1282.45	0
1282.82	0
1283.2	0
1283.58	0
1283.96	0
1284.34	0
1284.72	0
1285.1	0
1285.48	0
1285.86	0
1286.24	0
1286.62	0
1287	0
1287.38	0
1287.75	0
1288.13	0
1288.51	0
1288.89	0
1289.27	0
1289.65	0
1290.03	0
1290.41	0
1290.79	0
1291.17	0
1291.54	0
1291.92	0
1292.3	0
1292.68	0
1293.06	0
1293.44	0
1293.82	0
1294.2	0
1294.57	0
1294.95	0
1295.33	0
1295.71	0
1296.09	0
1296.47	0
1296.85	0
1297.22	0
1297.6	0
1297.98	0
1298.36	0
1298.74	0
1299.12	0
1299.5	0
1299.87	0
1300.25	0
1300.63	0
1301.01	0
1301.39	0
1301.77	0
1302.14	0
1302.52	0
1302.9	0
1303.28	0
1303.66	0
1304.03	0
1304.41	0
1304.79	0
1305.17	0
1305.55	0
1305.92	0
1306.3	0
1306.68	0
1307.06	0
1307.44	0
1307.81	0
1308.19	0
1308.57	0
1308.95	0
1309.32	0
1309.7	0
1310.08	0
1310.46	0
1310.84	0
1311.21	0
1311.59	0
1311.97	0
1312.35	0
1312.72	0
1313.1	0
1313.48	0
1313.86	0
1314.23	0
1314.61	0
1314.99	0
1315.37	0
1315.74	0
1316.12	0
1316.5	0
1316.87	0
1317.25	0
1317.63	0
1318.01	0
1318.38	0
1318.76	0
1319.14	0
1319.52	0
1319.89	0
1320.27	0
1320.65	0
1321.02	0
1321.4	0
1321.78	0
1322.15	0
1322.53	0
1322.91	0
1323.29	0
1323.66	0
1324.04	0
1324.42	0
1324.79	0
1325.17	0
1325.55	0
1325.92	0
1326.3	0
1326.68	0
1327.05	0
1327.43	0
1327.81	0
1328.18	0
1328.56	0
1328.94	0
1329.31	0
1329.69	0
1330.06	0
1330.44	0
1330.82	0
1331.19	0
1331.57	0
1331.95	0
1332.32	0
1332.7	0
1333.08	0
1333.45	0
1333.83	0
1334.2	0
1334.58	0
1334.96	0
1335.33	0
1335.71	0
1336.08	0
1336.46	0
1336.84	0
1337.21	0
1337.59	0
1337.96	0
1338.34	0
1338.72	0
1339.09	0
1339.47	0
1339.84	0
1340.22	0
1340.6	0
1340.97	0
1341.35	0
1341.72	0
1342.1	0
1342.47	0
1342.85	0
1343.23	0
1343.6	0
1343.98	0
1344.35	0
1344.73	0
1345.1	0
1345.48	0
1345.85	0
1346.23	0
1346.61	0
1346.98	0
1347.36	0
1347.73	0
1348.11	0
1348.48	0
1348.86	0
1349.23	0
1349.61	0
1349.98	0
1350.36	0
1350.73	0
1351.11	0
1351.48	0
1351.86	0
1352.23	0
1352.61	0
1352.98	0
1353.36	0
1353.73	0
1354.11	0
1354.48	0
1354.86	0
1355.23	0
1355.61	0
1355.98	0
1356.36	0
1356.73	0
1357.11	0
1357.48	0
1357.86	0
1358.23	0
1358.61	0
1358.98	0
1359.35	0
1359.73	0
1360.1	0
1360.48	0
1360.85	0
1361.23	0
1361.6	0
1361.98	0
1362.35	0
1362.72	0
1363.1	0
1363.47	0
1363.85	0
1364.22	0
1364.6	0
1364.97	0
1365.34	0
1365.72	0
1366.09	0
1366.47	0
1366.84	0
1367.22	0
1367.59	0
1367.96	0
1368.34	0
1368.71	0
1369.09	0.08
1369.46	-0.92
1369.83	-0.92
1370.21	-0.92
1370.58	-0.76
1370.96	-0.76
1371.33	0.24
1371.7	0.24
1372.08	0.76
1372.45	0.68
1372.82	0.76
1373.2	0.76
1373.57	0.8
1373.95	0.48
1374.32	0.4
1374.69	0.32
1375.07	0.32
1375.44	0.28
1375.81	0.16
1376.19	0.16
1376.56	0.08
1376.93	0.08
1377.31	0.08
1377.68	0
1378.05	0
1378.43	0
1378.8	0.04
1379.17	0.04
1379.55	0.04
1379.92	0.12
1380.29	0.24
1380.67	0.24
1381.04	0.32
1381.41	0.36
1381.79	0.28
1382.16	0.16
1382.53	0.16
1382.91	-0.92
1383.28	-0.92
1383.65	-0.92
1384.03	-0.92
1384.4	-0.96
1384.77	0.04
1385.14	0
1385.52	0
1385.89	0
1386.26	0
1386.64	0
1387.01	0
1387.38	0.36
1387.75	0.72
1388.13	0.72
1388.5	0.72
1388.87	0.72
1389.25	0.36
1389.62	-0.2
1389.99	-0.4
1390.36	-0.36
1390.74	-0.36
1391.11	-0.28
1391.48	-0.04
1391.85	0.16
1392.23	0.16
1392.6	0.16
1392.97	0.08
1393.34	0.24
1393.72	0.8
1394.09	0.76
1394.46	0.8
1394.83	0.84
1395.21	0.64
1395.58	0.08
1395.95	0.2
1396.32	0.24
1396.69	0.2
1397.07	0.36
1397.44	0.64
1397.81	0.52
1398.18	0.44
1398.55	0.72
1398.93	0.56
1399.3	0.28
1399.67	0.28
1400.04	0.28
1400.41	0
1400.79	0.24
1401.16	0.36
1401.53	0.36
1401.9	0.56
1402.27	0.6
1402.65	0.52
1403.02	0.4
1403.39	0.48
1403.76	-0.12
1404.13	0.08
1404.51	-0.04
1404.88	-0.04
1405.25	0.12
1405.62	0.56
1405.99	0.32
1406.36	0.28
1406.74	0.48
1407.11	0.28
1407.48	0.24
1407.85	-0.96
1408.22	-0.92
1408.59	-1.08
1408.96	-1.04
1409.34	-1
1409.71	0.2
1410.08	0.16
1410.45	0.12
1410.82	0.2
1411.19	0.16
1411.56	0.16
1411.93	0.16
1412.31	0.4
1412.68	0.32
1413.05	0.4
1413.42	0.52
1413.79	0.64
1414.16	0.44
1414.53	0.36
1414.9	0.08
1415.27	-3.10861e-17
1415.65	0.04
1416.02	0.12
1416.39	0.28
1416.76	0.68
1417.13	0.64
1417.5	0.72
1417.87	0.68
1418.24	0.52
1418.61	0.32
1418.98	0.48
1419.35	0.44
1419.73	0.48
1420.1	0.48
1420.47	0.64
1420.84	0.68
1421.21	0.48
1421.58	0.44
1421.95	0.44
1422.32	0.4
1422.69	0.24
1423.06	0.24
1423.43	0.16
1423.8	0.16
1424.17	0.12
1424.54	0.08
1424.91	0.2
1425.28	0.32
1425.65	0.44
1426.02	0.48
1426.39	0.48
1426.76	-0.16
1427.14	-0.2
1427.51	-0.16
1427.88	-0.28
1428.25	-0.28
1428.62	0.28
1428.99	0.24
1429.36	0.12
1429.73	0.2
1430.1	0.24
1430.47	0.24
1430.84	0.2
1431.21	0.16
1431.58	0.08
1431.95	0.16
1432.32	-0.08
1432.69	0.08
1433.06	0.08
1433.43	0.48
1433.8	0.36
1434.17	0.64
1434.54	0.56
1434.91	0.6
1435.28	0.24
1435.64	0.28
1436.01	-0.4
1436.38	-0.2
1436.75	-0.12
1437.12	-0.12
1437.49	-0.16
1437.86	0.44
1438.23	0.16
1438.6	0.08
1438.97	0.08
1439.34	0.12
1439.71	0.12
1440.08	0.12
1440.45	0.24
1440.82	-0.24
1441.19	0.24
1441.56	0.24
1441.93	0.24
1442.3	0.08
1442.67	-1.08
1443.03	-1.6
1443.4	-1.48
1443.77	-1.4
1444.14	-0.84
1444.51	0.84
1444.88	0.96
1445.25	0.84
1445.62	0.92
1445.99	0.4
1446.36	0.32
1446.73	0.2
1447.09	0.4
1447.46	0.24
1447.83	0.24
1448.2	0.24
1448.57	0.04
1448.94	0.08
1449.31	0.08
1449.68	0.04
1450.05	0.16
1450.41	0.4
1450.78	-0.24
1451.15	-0.24
1451.52	-1.44334e-17
1451.89	-0.08
1452.26	-0.12
1452.63	0.28
1453	0.52
1453.36	0.36
1453.73	0.4
1454.1	0.44
1454.47	0.44
1454.84	0.2
1455.21	0.2
1455.57	-0.16
1455.94	-0.2
1456.31	-0.2
1456.68	-0.2
1457.05	-0.28
1457.42	0
1457.78	0
1458.15	0
1458.52	0
1458.89	0.12
1459.26	0.12
1459.63	0.12
1459.99	0.12
1460.36	0.12
1460.73	0
1461.1	0
1461.47	0
1461.83	0.08
1462.2	0.24
1462.57	0.24
1462.94	0.24
1463.31	0.44
1463.67	0.36
1464.04	0.04
1464.41	0.28
1464.78	-2.66443e-17
1465.15	-0.2
1465.51	-0.2
1465.88	0.2
1466.25	3.83028e-17
1466.62	0.48
1466.98	0.76
1467.35	0.76
1467.72	0.52
1468.09	0.48
1468.46	0.6
1468.82	0.32
1469.19	0.56
1469.56	0.8
1469.93	1.12
1470.29	0.84
1470.66	1.04
1471.03	0.8
1471.4	0.68
1471.76	0.44
1472.13	0.64
1472.5	0.48
1472.86	0.48
1473.23	0.48
1473.6	0.4
1473.97	0.16
1474.33	0.12
1474.7	0.44
1475.07	0.44
1475.44	0.52
1475.8	0.32
1476.17	0.32
1476.54	0.12
1476.9	0.12
1477.27	0.24
1477.64	0.44
1478	0.44
1478.37	0.32
1478.74	0.2
1479.11	0
1479.47	0
1479.84	0
1480.21	0.28
1480.57	0.28
1480.94	0.32
1481.31	0.4
1481.67	0.44
1482.04	0.16
1482.41	0.24
1482.77	0.2
1483.14	0.12
1483.51	0.24
1483.87	0.24
1484.24	0.16
1484.61	0.32
1484.97	0.68
1485.34	0.88
1485.71	0.32
1486.07	0.4
1486.44	0.76
1486.81	0.84
1487.17	0.48
1487.54	1.04
1487.9	0.96
1488.27	0.44
1488.64	-0.2
1489	-0.2
1489.37	-0.2
1489.74	-0.16
1490.1	-0.16
1490.47	0.16
1490.83	0.16
1491.2	0.16
1491.57	0.16
1491.93	0.36
1492.3	0.24
1492.66	0.36
1493.03	0.36
1493.4	0.84
1493.76	0.64
1494.13	0.64
1494.49	0.56
1494.86	1.08
1495.23	0.6
1495.59	0.6
1495.96	-0.8
1496.32	-0.84
1496.69	-1.36
1497.06	-1.4
1497.42	-2.08
1497.79	-0.52
1498.15	-0.52
1498.52	-0.52
1498.88	-0.52
1499.25	0.2
1499.62	-0.28
1499.98	-0.04
1500.35	0.08
1500.71	0.12
1501.08	0.08
1501.44	0.56
1501.81	0.32
1502.17	0.32
1502.54	0.28
1502.9	0.28
1503.27	0.12
1503.64	0.12
1504	0
1504.37	0
1504.73	0.12
1505.1	0.2
1505.46	0.24
1505.83	0.28
1506.19	0.28
1506.56	0.28
1506.92	0.28
1507.29	0.24
1507.65	0.28
1508.02	0.36
1508.38	0.24
1508.75	0.36
1509.11	0.48
1509.48	0.52
1509.84	0.6
1510.21	0.6
1510.57	0.48
1510.94	0.36
1511.3	0.24
1511.67	0.24
1512.03	0.32
1512.4	0.28
1512.76	0.28
1513.13	-0.48
1513.49	-0.68
1513.85	-0.76
1514.22	-0.8
1514.58	-0.72
1514.95	0.04
1515.31	0.12
1515.68	0.16
1516.04	0.2
1516.41	0.36
1516.77	0.48
1517.14	0.56
1517.5	0.56
1517.86	0.76
1518.23	0.52
1518.59	0.4
1518.96	0.28
1519.32	0.36
1519.69	0.24
1520.05	0.24
1520.41	0.24
1520.78	0.24
1521.14	0.2
1521.51	0.08
1521.87	0.08
1522.24	0.12
1522.6	0.36
1522.96	0.4
1523.33	0.4
1523.69	0.4
1524.06	0.36
1524.42	0.12
1524.78	0
1525.15	0
1525.51	0
1525.88	0.04
1526.24	0.08
1526.6	0.16
1526.97	0.44
1527.33	0.64
1527.69	0.8
1528.06	0.76
1528.42	0.68
1528.79	0.4
1529.15	-0.6
1529.51	-0.8
1529.88	-0.76
1530.24	-0.52
1530.6	-0.4
1530.97	0.44
1531.33	0.48
1531.69	0.44
1532.06	0.2
1532.42	0.08
1532.78	0.08
1533.15	0.16
1533.51	0.16
1533.87	0.16
1534.24	0.4
1534.6	0.44
1534.96	0.32
1535.33	0.64
1535.69	0.8
1536.05	0.56
1536.42	0.52
1536.78	0.68
1537.14	0.36
1537.51	0.2
1537.87	0.2
1538.23	0.16
1538.6	0.24
1538.96	0.4
1539.32	0.4
1539.68	0.4
1540.05	0.44
1540.41	0.2
1540.77	0.12
1541.14	0.8
1541.5	0.8
1541.86	0.8
1542.23	0.8
1542.59	1
1542.95	0.32
1543.31	0.6
1543.68	0.64
1544.04	0.72
1544.4	0.64
1544.76	0.68
1545.13	0.4
1545.49	0.44
1545.85	0.36
1546.21	0.16
1546.58	0.16
1546.94	0.52
1547.3	0.4
1547.66	0.68
1548.03	1.04
1548.39	1
1548.75	0.64
1549.11	1
1549.48	0.72
1549.84	0.36
1550.2	0.64
1550.56	0.64
1550.93	0.28
1551.29	0.56
1551.65	0.96
1552.01	0.96
1552.37	0.96
1552.74	1.04
1553.1	0.76
1553.46	0.36
1553.82	0.08
1554.18	0.12
1554.55	0.04
1554.91	0.16
1555.27	0.2
1555.63	0.52
1555.99	0.48
1556.36	0.6
1556.72	-1.12
1557.08	-1.12
1557.44	-1.44
1557.8	-1.32
1558.17	-1.28
1558.53	0.36
1558.89	0.44
1559.25	0.52
1559.61	0.4
1559.97	0.56
1560.34	0.52
1560.7	0.4
1561.06	0.36
1561.42	0.36
1561.78	0.04
1562.14	-0.32
1562.5	0.2
1562.87	0.16
1563.23	0.16
1563.59	-0.08
1563.95	0.28
1564.31	-0.24
1564.67	-0.24
1565.03	-0.24
1565.4	0
1565.76	0
1566.12	0
1566.48	0.2
1566.84	0.2
1567.2	0.2
1567.56	0.08
1567.92	0.12
1568.29	-0.08
1568.65	-0.08
1569.01	-0.08
1569.37	-0.36
1569.73	-0.4
1570.09	-0.4
1570.45	-0.2
1570.81	-0.2
1571.17	0.2
1571.53	0.52
1571.89	0.52
1572.26	0.36
1572.62	0.4
1572.98	0.4
1573.34	0.16
1573.7	0.16
1574.06	0.16
1574.42	0.12
1574.78	-0.08
1575.14	-0.16
1575.5	-0.16
1575.86	-1
1576.22	-1
1576.58	-0.8
1576.94	-0.8
1577.3	-0.8
1577.67	0
1578.03	0.04
1578.39	0.04
1578.75	0.04
1579.11	0.04
1579.47	0.08
1579.83	0.04
1580.19	0.04
1580.55	0.04
1580.91	0.04
1581.27	0.08
1581.63	0.4
1581.99	0.44
1582.35	0.68
1582.71	0.68
1583.07	0.6
1583.43	0.28
1583.79	0.24
1584.15	0.08
1584.51	0.08
1584.87	0.12
1585.23	0.24
1585.59	0.32
1585.95	0.24
1586.31	0.48
1586.67	0.56
1587.03	0.6
1587.39	1.16
1587.75	1.16
1588.11	0.92
1588.47	0.8
1588.83	0.8
1589.19	0.16
1589.55	0.24
1589.91	0.4
1590.27	0.96
1590.63	1.16
1590.99	1.32
1591.35	1.32
1591.71	1.28
1592.07	0.72
1592.42	0.36
1592.78	0.36
1593.14	0.28
1593.5	0.16
1593.86	0.36
1594.22	0.68
1594.58	0.56
1594.94	0.6
1595.3	0.6
1595.66	0.72
1596.02	0.48
1596.38	0.44
1596.74	0.4
1597.1	0.44
1597.46	0.12
1597.81	0.12
1598.17	0.12
1598.53	0.12
1598.89	0.08
1599.25	0.08
1599.61	0
1599.97	0.08
1600.33	0.08
1600.69	0.12
1601.05	0.2
1601.4	0.2
1601.76	-0.24
1602.12	-0.24
1602.48	-0.28
1602.84	-0.28
1603.2	-0.08
1603.56	0.36
1603.92	0.36
1604.28	0.52
1604.63	0.52
1604.99	0.32
1605.35	0.24
1605.71	0.24
1606.07	0.08
1606.43	0.12
1606.79	0.12
1607.14	0.12
1607.5	0.12
1607.86	0.12
1608.22	0.08
1608.58	0.48
1608.94	0.48
1609.29	0.48
1609.65	0.28
1610.01	0.2
1610.37	-0.2
1610.73	-0.12
1611.09	-0.08
1611.44	0.2
1611.8	0.2
1612.16	0.2
1612.52	0.12
1612.88	0.4
1613.24	0.64
1613.59	0.68
1613.95	0.68
1614.31	0.8
1614.67	0.68
1615.03	0.48
1615.38	0.44
1615.74	0.44
1616.1	0.6
1616.46	0.44
1616.82	0.52
1617.17	0.52
1617.53	0.6
1617.89	0.32
1618.25	0.72
1618.6	0.6
1618.96	0.6
1619.32	0.52
1619.68	0.68
1620.04	0.48
1620.39	0.24
1620.75	0.24
1621.11	0.24
1621.47	0.16
1621.82	0.28
1622.18	0.68
1622.54	0.84
1622.9	1.16
1623.25	0.36
1623.61	2.66714e-17
1623.97	0.12
1624.33	1.05473e-17
1624.68	-0.52
1625.04	0.2
1625.4	0.2
1625.75	-0.76
1626.11	-0.8
1626.47	-0.6
1626.83	-0.6
1627.18	-0.48
1627.54	0.32
1627.9	0.56
1628.26	0.68
1628.61	0.68
1628.97	0.56
1629.33	0.36
1629.68	0.44
1630.04	0.32
1630.4	-0.16
1630.75	-0.04
1631.11	-0.04
1631.47	-0.52
1631.83	-0.52
1632.18	-0.04
1632.54	-0.16
1632.9	-0.16
1633.25	0
1633.61	0.2
1633.97	0.2
1634.32	0.48
1634.68	0.48
1635.04	0.48
1635.39	0.44
1635.75	0.48
1636.11	0.2
1636.46	0.2
1636.82	0.88
1637.18	0.96
1637.53	1.28
1637.89	1.28
1638.25	1.28
1638.6	0.76
1638.96	0.52
1639.31	0.48
1639.67	0.48
1640.03	0.48
1640.38	0.4
1640.74	0.52
1641.1	0.32
1641.45	0.44
1641.81	0.44
1642.16	0.36
1642.52	0.24
1642.88	0.32
1643.23	-0.4
1643.59	-0.4
1643.95	-0.12
1644.3	-2.10945e-17
1644.66	-0.2
1645.01	0.4
1645.37	0.4
1645.73	0.28
1646.08	0.16
1646.44	0.16
1646.79	-0.32
1647.15	8.4378e-17
1647.51	-0.16
1647.86	-0.12
1648.22	0.16
1648.57	-0.16
1648.93	-0.48
1649.28	-0.48
1649.64	-0.52
1650	-0.76
1650.35	0.24
1650.71	0.44
1651.06	0.92
1651.42	1.08
1651.77	1.12
1652.13	0.96
1652.48	0.76
1652.84	0.88
1653.2	0.96
1653.55	0.88
1653.91	0.84
1654.26	0.88
1654.62	0.32
1654.97	0.2
1655.33	0.28
1655.68	0.32
1656.04	0.52
1656.39	0.52
1656.75	0.64
1657.1	1.12
1657.46	1.2
1657.81	0.96
1658.17	0.92
1658.52	0.76
1658.88	0.28
1659.23	0.28
1659.59	0.48
1659.94	0.76
1660.3	0.68
1660.65	0.72
1661.01	0.6
1661.36	0.52
1661.72	0.64
1662.07	0.8
1662.43	0.88
1662.78	1
1663.14	1.16
1663.49	0.88
1663.85	1.36
1664.2	1.24
1664.56	1.44
1664.91	-0.08
1665.27	0.04
1665.62	-0.6
1665.98	-0.68
1666.33	-0.52
1666.69	0.84
1667.04	0.84
1667.39	1.32
1667.75	1.72
1668.1	1.4
1668.46	1.52
1668.81	1.4
1669.17	1.28
1669.52	1.48
1669.88	1.6
1670.23	1.36
1670.58	1.84
1670.94	1.8
1671.29	1.32
1671.65	1.2
1672	1.28
1672.36	1.12
1672.71	1.16
1673.06	1.16
1673.42	1.28
1673.77	1.72
1674.13	1.76
1674.48	1.52
1674.83	1.48
1675.19	1.36
1675.54	1
1675.9	0.56
1676.25	0.64
1676.6	0.56
1676.96	0.48
1677.31	0.76
1677.67	0.8
1678.02	0.72
1678.37	1
1678.73	1
1679.08	1.04
1679.43	1.12
1679.79	1.6
1680.14	1.6
1680.5	0.92
1680.85	0.92
1681.2	0.76
1681.56	0.16
1681.91	-7.66057e-17
1682.26	0.72
1682.62	0.52
1682.97	0.68
1683.32	0.68
1683.68	0.56
1684.03	0.68
1684.38	0.48
1684.74	0.6
1685.09	0.64
1685.44	0.64
1685.8	0.6
1686.15	0.92
1686.5	0.68
1686.86	0.64
1687.21	0.48
1687.56	0.36
1687.92	3.60836e-18
1688.27	0.04
1688.62	0.04
1688.98	0.2
1689.33	0.12
1689.68	0.08
1690.03	0.04
1690.39	0.04
1690.74	0.16
1691.09	0.4
1691.45	0.12
1691.8	0.28
1692.15	0.4
1692.5	0.56
1692.86	0.32
1693.21	0.64
1693.56	0.56
1693.92	0.72
1694.27	-0.04
1694.62	-3.33053e-18
1694.97	-0.04
1695.33	-0.16
1695.68	-0.44
1696.03	0.04
1696.38	0
1696.74	0
1697.09	-0.08
1697.44	-0.08
1697.79	-0.08
1698.15	0.16
1698.5	0.64
1698.85	0.72
1699.2	0.2
1699.56	0.2
1699.91	-0.04
1700.26	-0.52
1700.61	-0.52
1700.97	0
1701.32	0
1701.67	0
1702.02	0.16
1702.37	0.64
1702.73	0.64
1703.08	0.92
1703.43	0.92
1703.78	0.88
1704.13	0.4
1704.49	0.48
1704.84	0.2
1705.19	0.2
1705.54	0.28
1705.89	0.4
1706.25	0.56
1706.6	0.56
1706.95	0.76
1707.3	0.8
1707.65	0.84
1708.01	0.6
1708.36	0.72
1708.71	0.52
1709.06	0.72
1709.41	0.8
1709.76	0.96
1710.12	0.84
1710.47	1.32
1710.82	0.88
1711.17	0.72
1711.52	0.56
1711.87	0.56
1712.23	0.28
1712.58	0.4
1712.93	0.56
1713.28	0.56
1713.63	0.72
1713.98	0.84
1714.33	0.96
1714.69	0.96
1715.04	1.36
1715.39	1.36
1715.74	1.04
1716.09	0.8
1716.44	0.8
1716.79	1.24
1717.14	1.56
1717.5	2.12
1717.85	2.44
1718.2	2.68
1718.55	2.24
1718.9	2.16
1719.25	1.92
1719.6	1.84
1719.95	2
1720.3	1.88
1720.65	1.72
1721.01	1.96
1721.36	2.4
1721.71	2.24
1722.06	1.72
1722.41	2
1722.76	2.76
1723.11	2.6
1723.46	2.72
1723.81	3.4
1724.16	3.8
1724.51	2.88
1724.86	2.6
1725.21	2.88
1725.56	3.6
1725.92	3.48
1726.27	3.12
1726.62	3.2
1726.97	3
1727.32	2.12
1727.67	2.12
1728.02	3.2
1728.37	3.96
1728.72	5.28
1729.07	6.12
1729.42	6.12
1729.77	5.88
1730.12	5.32
1730.47	4.12
1730.82	4.4
1731.17	4.84
1731.52	4.48
1731.87	4.56
1732.22	5.6
1732.57	4.92
1732.92	4.6
1733.27	7.04
1733.62	8.16
1733.97	7.92
1734.32	9.64
1734.67	10.64
1735.02	8.48
1735.37	9.64
1735.72	8.72
1736.07	8.56
1736.42	8.52
1736.77	9.84
1737.12	10.24
1737.47	11.72
1737.82	12.92
1738.17	14.08
1738.52	14.36
1738.87	14.2
1739.22	14.36
1739.57	15.28
1739.92	15.8
1740.27	16.4
1740.62	17.52
1740.97	17.04
1741.32	15.48
1741.67	16.48
1742.02	16.72
1742.37	17.36
1742.72	18.08
1743.06	18.4
1743.41	18
1743.76	18.44
1744.11	15.52
1744.46	17.28
1744.81	17.32
1745.16	17.04
1745.51	16.32
1745.86	17.72
1746.21	17.64
1746.56	17.08
1746.91	15.4
1747.26	16.88
1747.6	16.48
1747.95	15.28
1748.3	15.8
1748.65	16.28
1749	14.2
1749.35	14.2
1749.7	13.32
1750.05	12.2
1750.4	13.28
1750.75	14.4
1751.09	13.6
1751.44	15.84
1751.79	15.32
1752.14	14.08
1752.49	14.56
1752.84	14.48
1753.19	13.52
1753.54	15
1753.88	13.84
1754.23	12.72
1754.58	14.04
1754.93	12.72
1755.28	13.24
1755.63	13.76
1755.98	11.68
1756.32	11.28
1756.67	10.36
1757.02	9.16
1757.37	10.52
1757.72	9.8
1758.07	9.12
1758.42	12.32
1758.76	12.28
1759.11	11.56
1759.46	14.96
1759.81	15.84
1760.16	15.04
1760.5	14.28
1760.85	14.8
1761.2	15.08
1761.55	13.92
1761.9	13.6
1762.25	14.8
1762.59	15.2
1762.94	14.84
1763.29	14.44
1763.64	14.16
1763.99	16.24
1764.33	15.16
1764.68	16.24
1765.03	17.64
1765.38	18
1765.73	17.48
1766.07	19.16
1766.42	19.88
1766.77	23.68
1767.12	25.36
1767.46	28.68
1767.81	31.16
1768.16	30.44
1768.51	30
1768.85	30.96
1769.2	28.96
1769.55	30.56
1769.9	32.36
1770.25	34.56
1770.59	40.32
1770.94	43.48
1771.29	43.32
1771.64	48.28
1771.98	49.32
1772.33	47.56
1772.68	51.08
1773.02	55.08
1773.37	58.6
1773.72	63.24
1774.07	65.92
1774.41	68.84
1774.76	73.84
1775.11	73.44
1775.46	74.84
1775.8	77.08
1776.15	75.56
1776.5	75.4
1776.84	81.88
1777.19	87.2
1777.54	96.2
1777.89	104
1778.23	109.44
1778.58	114.32
1778.93	117.52
1779.27	118.84
1779.62	122.6
1779.97	124.24
1780.31	124.84
1780.66	124.92
1781.01	125.52
1781.35	130.4
1781.7	136
1782.05	140.16
1782.39	148.4
1782.74	152.88
1783.09	158.24
1783.43	165.88
1783.78	169.64
1784.13	176.88
1784.47	180.84
1784.82	178.04
1785.17	177.72
1785.51	179.96
1785.86	182.96
1786.21	198.16
1786.55	210.04
1786.9	224.36
1787.25	237.92
1787.59	242.48
1787.94	242.36
1788.29	242.28
1788.63	241.44
1788.98	246.52
1789.32	250.12
1789.67	250.48
1790.02	248.64
1790.36	252.08
1790.71	271.6
1791.06	289.36
1791.4	309.04
1791.75	341.52
1792.09	366.08
1792.44	380.24
1792.79	392.36
1793.13	407.56
1793.48	422.28
1793.82	419.04
1794.17	408.52
1794.52	412.12
1794.86	395.72
1795.21	376.72
1795.55	359.64
1795.9	321.68
1796.24	342.72
1796.59	395.88
1796.94	436.04
1797.28	490.64
1797.63	536.36
1797.97	525.48
1798.32	499.6
1798.66	493.4
1799.01	495.64
1799.36	497.8
1799.7	506.84
1800.05	525.12
1800.39	499.76
1800.74	507.8
1801.08	573.72
1801.43	601.8
1801.77	601.96
1802.12	628.72
1802.46	635.12
1802.81	608.28
1803.15	586.96
1803.5	586.52
1803.85	573.52
1804.19	533.96
1804.54	536.28
1804.88	541.44
1805.23	521.04
1805.57	559.12
1805.92	622.88
1806.26	633.52
1806.61	627.28
1806.95	668.48
1807.3	728.4
1807.64	756.72
1807.99	771.64
1808.33	797
1808.68	764.48
1809.02	736.64
1809.37	757.28
1809.71	784.92
1810.06	815.52
1810.4	845.6
1810.75	794.32
1811.09	774.16
1811.43	825.88
1811.78	891.72
1812.12	987.44
1812.47	1080.92
1812.81	1088.44
1813.16	1062.36
1813.5	1025.72
1813.85	974.08
1814.19	954.96
1814.54	934.92
1814.88	879.76
1815.23	831.44
1815.57	771.16
1815.91	663.92
1816.26	626.04
1816.6	694.24
1816.95	735.36
1817.29	792.44
1817.64	908.6
1817.98	1007.28
1818.32	1048.32
1818.67	1103.72
1819.01	1149.8
1819.36	1170.96
1819.7	1128.28
1820.05	1057.68
1820.39	1046.36
1820.73	1032.52
1821.08	1010.88
1821.42	1020.32
1821.77	1017.12
1822.11	922.88
1822.45	866.32
1822.8	862.04
1823.14	803.24
1823.49	761.08
1823.83	875.92
1824.17	990.08
1824.52	1040.4
1824.86	1135.08
1825.2	1188.96
1825.55	1123.32
1825.89	1022.48
1826.24	930.36
1826.58	929.28
1826.92	977.32
1827.27	1001.6
1827.61	1054.44
1827.95	1117.72
1828.3	1063.76
1828.64	979.2
1828.98	920
1829.33	820
1829.67	818.96
1830.02	888.24
1830.36	925.68
1830.7	1015.8
1831.05	1152.96
1831.39	1160.24
1831.73	1124
1832.08	1139.56
1832.42	1084.6
1832.76	1021.32
1833.1	998.44
1833.45	954.84
1833.79	894.52
1834.13	871.4
1834.48	864.6
1834.82	853.36
1835.16	876.92
1835.51	886.72
1835.85	883.88
1836.19	871.56
1836.54	825.64
1836.88	763.08
1837.22	699.76
1837.56	640.04
1837.91	604.2
1838.25	647.52
1838.59	726.88
1838.94	792.68
1839.28	843.16
1839.62	838.56
1839.96	811.68
1840.31	734.36
1840.65	666.24
1840.99	609.56
1841.34	677.4
1841.68	737.12
1842.02	794.12
1842.36	875.08
1842.71	920.6
1843.05	818.04
1843.39	748.92
1843.73	775
1844.08	795.4
1844.42	864.08
1844.76	979.6
1845.1	1008.96
1845.45	942.16
1845.79	903.52
1846.13	873.96
1846.47	831.92
1846.81	797.28
1847.16	777.56
1847.5	775
1847.84	796.04
1848.18	824.6
1848.53	856.12
1848.87	896
1849.21	889.84
1849.55	833.56
1849.89	786.72
1850.24	750.12
1850.58	716.88
1850.92	688.84
1851.26	671.12
1851.6	651.68
1851.95	643.96
1852.29	631.08
1852.63	619.2
1852.97	606.12
1853.31	576.56
1853.66	541.28
1854	506
1854.34	474.6
1854.68	493.8
1855.02	520.12
1855.36	539.44
1855.71	553.72
1856.05	566.44
1856.39	530.6
1856.73	486.6
1857.07	455.92
1857.41	443.56
1857.76	433.52
1858.1	423.6
1858.44	413.28
1858.78	407.4
1859.12	386.72
1859.46	365.32
1859.8	333.84
1860.15	306.76
1860.49	296.08
1860.83	322.2
1861.17	341.04
1861.51	348.52
1861.85	361.52
1862.19	343.08
1862.53	308.44
1862.88	289.76
1863.22	283.16
1863.56	276.56
1863.9	279
1864.24	282.28
1864.58	266.24
1864.92	256.04
1865.26	248.2
1865.6	239.6
1865.94	217.28
1866.29	203.44
1866.63	189.12
1866.97	173.68
1867.31	158.68
1867.65	147.6
1867.99	147
1868.33	140.04
1868.67	129.56
1869.01	123.84
1869.35	134.84
1869.69	153
1870.03	169.16
1870.37	192.48
1870.72	212.28
1871.06	200.56
1871.4	172.2
1871.74	147.92
1872.08	121.44
1872.42	114.24
1872.76	124.8
1873.1	127.32
1873.44	128.92
1873.78	128.08
1874.12	107.36
1874.46	87.8
1874.8	91.48
1875.14	103.4
1875.48	111.84
1875.82	119.8
1876.16	125.92
1876.5	119.72
1876.84	111.16
1877.18	104.16
1877.52	97.16
1877.86	80.84
1878.2	66.28
1878.54	53.28
1878.88	45.68
1879.22	40.16
1879.56	37.28
1879.9	33.12
1880.24	29.88
1880.58	28.24
1880.92	31.84
1881.26	35.24
1881.6	34.04
1881.94	32.28
1882.28	30.28
1882.62	30.96
1882.96	37.6
1883.3	45.28
1883.64	48.16
1883.98	48
1884.32	42.12
1884.66	30.44
1885	21.64
1885.34	19.12
1885.68	18.04
1886.02	17.08
1886.36	15.28
1886.7	13.96
1887.04	11.4
1887.38	10.36
1887.72	10
1888.06	11.08
1888.39	14.04
1888.73	17.96
1889.07	31.24
1889.41	41
1889.75	43.36
1890.09	51.8
1890.43	59.64
1890.77	49.76
1891.11	39.08
1891.45	35.08
1891.79	25.2
1892.13	14.96
1892.47	14.08
1892.8	16.52
1893.14	21.84
1893.48	26.6
1893.82	34.56
1894.16	35.76
1894.5	34.56
1894.84	35.32
1895.18	33.72
1895.52	31.48
1895.86	32.96
1896.19	38.36
1896.53	38.84
1896.87	42.6
1897.21	42.96
1897.55	45.92
1897.89	50.2
1898.23	58
1898.57	57.64
1898.9	58.08
1899.24	58.52
1899.58	55.56
1899.92	52.44
1900.26	54.52
1900.6	57
1900.94	57.48
1901.27	60.52
1901.61	61.76
1901.95	61.76
1902.29	64.8
1902.63	69.24
1902.97	72.44
1903.3	75.2
1903.64	81.56
1903.98	82.56
1904.32	83.2
1904.66	83.64
1905	85.16
1905.33	85.24
1905.67	88.56
1906.01	91.8
1906.35	96.12
1906.69	96.2
1907.02	97.52
1907.36	97.32
1907.7	98.6
1908.04	98
1908.38	102.08
1908.71	103.8
1909.05	106.84
1909.39	106.44
1909.73	107.84
1910.07	106.92
1910.4	107.24
1910.74	107.36
1911.08	110.28
1911.42	110.8
1911.76	114
1912.09	115.4
1912.43	118.92
1912.77	119.64
1913.11	122.88
1913.44	123.16
1913.78	124.6
1914.12	125.96
1914.46	128.16
1914.79	130.48
1915.13	131.44
1915.47	132.88
1915.81	131.52
1916.14	132.24
1916.48	131.88
1916.82	132.68
1917.16	133.16
1917.49	135.24
1917.83	135.32
1918.17	135.96
1918.5	136.68
1918.84	136.84
1919.18	137.76
1919.52	137.96
1919.85	135.96
1920.19	136.48
1920.53	138.64
1920.87	136.36
1921.2	136.28
1921.54	138.2
1921.88	136.72
1922.21	134.6
1922.55	136.8
1922.89	135.92
1923.22	134.04
1923.56	134.16
1923.9	133.12
1924.23	129.76
1924.57	128.36
1924.91	129.76
1925.25	127.96
1925.58	129.44
1925.92	130
1926.26	131.4
1926.59	127.44
1926.93	129.76
1927.27	128.36
1927.6	128.36
1927.94	128
1928.28	130.28
1928.61	127.64
1928.95	127.4
1929.29	125.6
1929.62	124.6
1929.96	120.76
1930.29	121.16
1930.63	119.2
1930.97	118
1931.3	117.88
1931.64	119.2
1931.98	117.64
1932.31	116.52
1932.65	117.68
1932.99	115.72
1933.32	116.72
1933.66	116.04
1933.99	115.48
1934.33	114.76
1934.67	113.44
1935	110.8
1935.34	109.4
1935.67	111.48
1936.01	108.96
1936.35	109.52
1936.68	109.88
1937.02	109.52
1937.35	106.12
1937.69	106.4
1938.03	104.8
1938.36	100.44
1938.7	100.2
1939.03	97.8
1939.37	95.76
1939.7	95.92
1940.04	97.56
1940.38	95.28
1940.71	96.24
1941.05	96.36
1941.38	93
1941.72	93.08
1942.05	91.68
1942.39	89.92
1942.73	87.04
1943.06	87.64
1943.4	84.72
1943.73	84.52
1944.07	82.84
1944.4	82.76
1944.74	80.48
1945.07	80.56
1945.41	79.48
1945.74	79.76
1946.08	78.92
1946.42	77.88
1946.75	73.92
1947.09	73.28
1947.42	72.72
1947.76	71.24
1948.09	70.8
1948.43	72.04
1948.76	70.8
1949.1	67.68
1949.43	67.76
1949.77	66.52
1950.1	64
1950.44	62.32
1950.77	63.16
1951.11	63.16
1951.44	63
1951.78	61.88
1952.11	62.52
1952.45	60.72
1952.78	59.64
1953.12	60.6
1953.45	61
1953.79	58.52
1954.12	59.56
1954.46	58.56
1954.79	55.52
1955.12	55.28
1955.46	56.52
1955.79	56.08
1956.13	54.72
1956.46	55.92
1956.8	55.32
1957.13	53.56
1957.47	52.16
1957.8	53
1958.14	52.28
1958.47	52.12
1958.8	52.76
1959.14	52.8
1959.47	50.88
1959.81	49.32
1960.14	49.08
1960.48	48.44
1960.81	46.84
1961.14	48
1961.48	48.16
1961.81	48.88
1962.15	47.64
1962.48	48.32
1962.82	46.4
1963.15	46.32
1963.48	42.44
1963.82	42.56
1964.15	41.12
1964.49	41.16
1964.82	39.64
1965.15	41.6
1965.49	41.28
1965.82	42.2
1966.16	41.28
1966.49	42.44
1966.82	42.44
1967.16	40.48
1967.49	40.2
1967.83	40.4
1968.16	38.16
1968.49	38.52
1968.83	41.04
1969.16	39.32
1969.49	38.84
1969.83	39.72
1970.16	38.16
1970.49	36.52
1970.83	36.6
1971.16	35.92
1971.5	34.4
1971.83	33.96
1972.16	34.24
1972.5	35.24
1972.83	34.52
1973.16	35.68
1973.5	35.92
1973.83	35.12
1974.16	33.52
1974.5	33.6
1974.83	31.44
1975.16	30.44
1975.5	30.36
1975.83	30.2
1976.16	30.12
1976.49	31.84
1976.83	31.24
1977.16	30.16
1977.49	28.88
1977.83	29.4
1978.16	29.56
1978.49	30.28
1978.83	29.6
1979.16	29.92
1979.49	27.48
1979.83	26.88
1980.16	25.76
1980.49	27.44
1980.82	26.52
1981.16	26.56
1981.49	25.24
1981.82	23.56
1982.15	21.44
1982.49	21.2
1982.82	20.56
1983.15	19
1983.49	19.28
1983.82	18.36
1984.15	18.76
1984.48	18.32
1984.82	17.2
1985.15	18.12
1985.48	18.64
1985.81	16.96
1986.15	15.68
1986.48	16.72
1986.81	16.04
1987.14	15.12
1987.48	14.76
1987.81	16.4
1988.14	15.52
1988.47	14.4
1988.81	12.44
1989.14	12.84
1989.47	11.52
1989.8	10.48
1990.13	9.84
1990.47	9.64
1990.8	8.28
1991.13	8.48
1991.46	9.44
1991.79	7.92
1992.13	7.36
1992.46	6.28
1992.79	4.88
1993.12	3.76
1993.45	3.76
1993.79	4.84
1994.12	4.8
1994.45	4.48
1994.78	3.4
1995.11	3.6
1995.45	2.6
1995.78	3.16
1996.11	3.04
1996.44	3.52
1996.77	3.04
1997.1	2.76
1997.44	1.96
1997.77	2.2
1998.1	1.96
1998.43	2.12
1998.76	2.72
1999.09	3.24
1999.43	1.96
1999.76	1.64
2000.09	1.4
2000.42	1.08
2000.75	-0.72
2001.08	0.44
2001.41	1.36
2001.75	1.24
2002.08	0.88
2002.41	2.16
2002.74	1.64
2003.07	0.72
2003.4	0.64
2003.73	0.88
2004.06	0.52
2004.4	0.52
2004.73	0.52
2005.06	0.88
2005.39	0.88
2005.72	0.76
2006.05	0.96
2006.38	1
2006.71	0.92
2007.04	0.72
2007.37	1
2007.71	0.8
2008.04	0.68
2008.37	0.48
2008.7	0.64
2009.03	0.92
2009.36	1.32
2009.69	1.28
2010.02	1.36
2010.35	1.28
2010.68	0.96
2011.01	0.56
2011.34	0.68
2011.67	0.88
2012.01	1.12
2012.34	1.08
2012.67	1.44
2013	1.48
2013.33	1.52
2013.66	1.32
2013.99	1.4
2014.32	1.16
2014.65	1.2
2014.98	1.48
2015.31	1.76
2015.64	1.88
2015.97	2.28
2016.3	2.24
2016.63	1.76
2016.96	1.6
2017.29	1.12
2017.62	0.88
2017.95	1.04
2018.28	1.2
2018.61	1.56
2018.94	2.12
2019.27	1.84
2019.6	1.84
2019.93	1.92
2020.26	1.36
2020.59	1.8
2020.92	2.32
2021.25	2.64
2021.58	3.84
2021.91	4.36
2022.24	4.16
2022.57	4.68
2022.9	4.8
2023.23	3.32
2023.56	3.64
2023.89	4.08
2024.22	3.84
2024.55	3.84
2024.88	4.48
2025.21	4.88
2025.54	5.72
2025.87	6
2026.2	6.28
2026.53	6.32
2026.86	5.92
2027.19	5.4
2027.52	4.96
2027.85	4.96
2028.18	5.52
2028.51	4.72
2028.84	4.6
2029.16	5.08
2029.49	5.12
2029.82	5.6
2030.15	6.88
2030.48	6.32
2030.81	6.48
2031.14	6.56
2031.47	4.92
2031.8	5.36
2032.13	5.56
2032.46	5.24
2032.79	5.76
2033.12	7.2
2033.44	6.32
2033.77	6.24
2034.1	6.04
2034.43	5.2
2034.76	4.88
2035.09	4.72
2035.42	5.24
2035.75	5.36
2036.08	4.92
2036.41	4.68
2036.73	5.16
2037.06	5.52
2037.39	5.4
2037.72	7.08
2038.05	7.04
2038.38	6.84
2038.71	6
2039.04	4.72
2039.36	3.72
2039.69	4.16
2040.02	2.8
2040.35	3.2
2040.68	4.88
2041.01	4.84
2041.34	3.8
2041.66	5.44
2041.99	4.96
2042.32	4.68
2042.65	5.24
2042.98	5.8
2043.31	5.68
2043.63	5.84
2043.96	6.8
2044.29	6.8
2044.62	6.56
2044.95	6.48
2045.28	7.48
2045.6	6.36
2045.93	5.8
2046.26	6.96
2046.59	5.92
2046.92	5.04
2047.24	5.12
2047.57	5.92
2047.9	4.64
2048.23	4.68
2048.56	4.44
2048.88	3.72
2049.21	2.8
2049.54	3.16
2049.87	3.8
2050.2	3.32
2050.52	3.64
2050.85	3.8
2051.18	3.2
2051.51	3.16
2051.83	3.12
2052.16	2.88
2052.49	2
2052.82	1.92
2053.15	1.28
2053.47	1.28
2053.8	1.52
2054.13	1.68
2054.46	1.32
2054.78	1.12
2055.11	1.36
2055.44	2.04
2055.77	2.08
2056.09	2.56
2056.42	2.96
2056.75	2.48
2057.08	1.76
2057.4	1.52
2057.73	1.2
2058.06	1
2058.38	1.32
2058.71	1.16
2059.04	1.52
2059.37	1.48
2059.69	1.36
2060.02	2.24
2060.35	2.44
2060.67	1.96
2061	2.12
2061.33	1.84
2061.66	0.84
2061.98	0.96
2062.31	1.08
2062.64	0.8
2062.96	1.44
2063.29	1.56
2063.62	1.08
2063.94	0.84
2064.27	1.72
2064.6	0.88
2064.92	0.52
2065.25	0.76
2065.58	0.92
2065.91	0.36
2066.23	0.96
2066.56	1.04
2066.89	0.84
2067.21	0.92
2067.54	0.72
2067.87	0.72
2068.19	1.16
2068.52	1.28
2068.84	1.04
2069.17	1.04
2069.5	1.48
2069.82	0.84
2070.15	0.8
2070.48	0.92
2070.8	0.84
2071.13	0.36
2071.46	0.88
2071.78	0.84
2072.11	0.8
2072.43	0.88
2072.76	0.72
2073.09	0.32
2073.41	0.2
2073.74	0.28
2074.07	0.76
2074.39	1.28
2074.72	1.4
2075.04	1.4
2075.37	1.24
2075.7	0.64
2076.02	0.52
2076.35	0.6
2076.67	0.92
2077	0.96
2077.33	1.4
2077.65	1.08
2077.98	1.24
2078.3	1.36
2078.63	1.4
2078.95	1.4
2079.28	1.32
2079.61	1.24
2079.93	1.08
2080.26	1.12
2080.58	0.84
2080.91	0.84
2081.23	0.76
2081.56	0.48
2081.89	0.36
2082.21	0.52
2082.54	0.52
2082.86	0.96
2083.19	1.24
2083.51	1.52
2083.84	1.32
2084.16	1.56
2084.49	1
2084.81	1.6
2085.14	1.84
2085.46	1.76
2085.79	1.6
2086.12	1.6
2086.44	1
2086.77	1.12
2087.09	1.24
2087.42	1.4
2087.74	1.4
2088.07	1.16
2088.39	0.72
2088.72	0.64
2089.04	0.56
2089.37	0.52
2089.69	0.6
2090.02	0.56
2090.34	0.16
2090.67	0.36
2090.99	-1.88
2091.32	-1.8
2091.64	-1.96
2091.97	-1.56
2092.29	-1.92
2092.62	0.28
2092.94	0.28
2093.26	0.44
2093.59	0.72
2093.91	-0.48
2094.24	-0.36
2094.56	-0.44
2094.89	-0.6
2095.21	-0.44
2095.54	1.04
2095.86	1.16
2096.19	1.28
2096.51	1.48
2096.84	1.24
2097.16	0.96
2097.48	0.96
2097.81	0.76
2098.13	0.68
2098.46	0.36
2098.78	0.4
2099.11	0.2
2099.43	0.36
2099.75	0.84
2100.08	1.08
2100.4	1.24
2100.73	1.32
2101.05	1.2
2101.38	0.76
2101.7	1.04
2102.02	1.04
2102.35	1.04
2102.67	1
2103	0.84
2103.32	0.36
2103.64	0.16
2103.97	0.24
2104.29	0.2
2104.62	0.36
2104.94	0.36
2105.26	0.04
2105.59	-0.16
2105.91	1.44334e-17
2106.23	0.08
2106.56	0.08
2106.88	0.48
2107.21	0.6
2107.53	0.84
2107.85	0.64
2108.18	1.72
2108.5	1.68
2108.82	1.88
2109.15	1.56
2109.47	1.6
2109.79	0.56
2110.12	0.6
2110.44	0.44
2110.76	0.36
2111.09	0.28
2111.41	0.56
2111.73	0.48
2112.06	0.92
2112.38	0.92
2112.7	0.64
2113.03	0.48
2113.35	0.48
2113.67	-0.08
2114	6.27279e-17
2114.32	0.48
2114.64	0.32
2114.97	0.32
2115.29	0.28
2115.61	0.36
2115.94	0.24
2116.26	0.24
2116.58	0.24
2116.91	-0.68
2117.23	-0.64
2117.55	-0.72
2117.87	-0.72
2118.2	-0.72
2118.52	0.2
2118.84	0
2119.17	0.24
2119.49	0.24
2119.81	0.24
2120.13	0.28
2120.46	0.28
2120.78	-0.92
2121.1	-0.8
2121.42	-0.8
2121.75	-0.72
2122.07	-0.68
2122.39	0.96
2122.72	1.4
2123.04	1.4
2123.36	1.32
2123.68	1.36
2124.01	0.68
2124.33	0.36
2124.65	0.36
2124.97	0.32
2125.29	0.52
2125.62	0.72
2125.94	0.56
2126.26	0.6
2126.58	0.68
2126.91	-0.6
2127.23	-0.72
2127.55	-0.64
2127.87	-0.68
2128.2	-0.52
2128.52	0.92
2128.84	0.88
2129.16	0.72
2129.48	0.72
2129.81	0.52
2130.13	0.12
2130.45	0.08
2130.77	0.08
2131.09	0.08
2131.42	0.6
2131.74	0.64
2132.06	1
2132.38	1.12
2132.7	1.2
2133.02	0.72
2133.35	0.92
2133.67	0.76
2133.99	0.96
2134.31	0.28
2134.63	0.2
2134.96	-0.08
2135.28	-0.16
2135.6	0.12
2135.92	0.72
2136.24	0.88
2136.56	1
2136.88	1.2
2137.21	0.8
2137.53	0.84
2137.85	1.04
2138.17	0.32
2138.49	0.04
2138.81	-0.16
2139.13	0.2
2139.46	-0.16
2139.78	0.44
2140.1	0.4
2140.42	0.76
2140.74	0.36
2141.06	0.4
2141.38	0.6
2141.7	0.68
2142.03	0.32
2142.35	0.48
2142.67	0.88
2142.99	0.76
2143.31	0.68
2143.63	0.68
2143.95	0.52
2144.27	0.08
2144.59	0.52
2144.91	0.36
2145.24	0.68
2145.56	1.08
2145.88	1.28
2146.2	0.76
2146.52	1.08
2146.84	1.08
2147.16	0.8
2147.48	0.64
2147.8	0.64
2148.12	0.72
2148.44	0.4
2148.76	0.32
2149.08	0.44
2149.41	1
2149.73	0.84
2150.05	1.08
2150.37	1.4
2150.69	1.52
2151.01	0.96
2151.33	0.96
2151.65	0.88
2151.97	0.52
2152.29	0.28
2152.61	-0.04
2152.93	0.04
2153.25	-0.12
2153.57	-0.12
2153.89	0.12
2154.21	0.16
2154.53	-2.66443e-17
2154.85	-2.66443e-17
2155.17	0.36
2155.49	0.08
2155.81	0.36
2156.13	0.56
2156.45	0.56
2156.77	0.44
2157.09	0.44
2157.41	0.44
2157.73	0.36
2158.05	0.44
2158.37	0.2
2158.69	0.32
2159.01	0.4
2159.33	0.4
2159.65	0.48
2159.97	0.48
2160.29	0.52
2160.61	0.44
2160.93	0.48
2161.25	0.32
2161.57	0.76
2161.89	0.6
2162.21	0.8
2162.53	0.64
2162.85	0.04
2163.17	-0.16
2163.49	-0.04
2163.81	-0.24
2164.13	-0.08
2164.45	0.4
2164.77	0.24
2165.08	0.36
2165.4	0.56
2165.72	0.4
2166.04	0.52
2166.36	0.44
2166.68	0.2
2167	0.12
2167.32	0.44
2167.64	0.56
2167.96	0.6
2168.28	0.6
2168.6	0.52
2168.92	0.32
2169.24	0.24
2169.55	0.28
2169.87	0.28
2170.19	0.28
2170.51	0.36
2170.83	0.32
2171.15	0.24
2171.47	0.28
2171.79	0.28
2172.11	0.56
2172.43	0.56
2172.74	0.72
2173.06	0.68
2173.38	0.96
2173.7	0.8
2174.02	0.88
2174.34	1
2174.66	1.2
2174.98	0.88
2175.29	0.64
2175.61	0.68
2175.93	0.4
2176.25	0.6
2176.57	0.8
2176.89	0.88
2177.21	0.88
2177.52	1.04
2177.84	0.96
2178.16	0.76
2178.48	0.6
2178.8	0.48
2179.12	0.32
2179.43	0.04
2179.75	-0.92
2180.07	-0.72
2180.39	-0.48
2180.71	-0.48
2181.03	-0.52
2181.34	0.8
2181.66	0.6
2181.98	0.36
2182.3	0.52
2182.62	0.68
2182.93	0.04
2183.25	0.24
2183.57	0.24
2183.89	0.08
2184.21	0.2
2184.52	0.48
2184.84	0.44
2185.16	0.48
2185.48	0.48
2185.8	0.2
2186.11	0.2
2186.43	0.08
2186.75	0.04
2187.07	-0.36
2187.39	-1.16
2187.7	-1.16
2188.02	-1.8
2188.34	-1.76
2188.66	-1.36
2188.97	-0.48
2189.29	-0.48
2189.61	0.16
2189.93	0.12
2190.24	0.12
2190.56	0.36
2190.88	0.36
2191.2	0.52
2191.51	0.56
2191.83	0.72
2192.15	0.4
2192.47	0.4
2192.78	0.32
2193.1	0.36
2193.42	0.2
2193.74	0.52
2194.05	0.64
2194.37	0.56
2194.69	0.48
2195	0.32
2195.32	-1.44334e-17
2195.64	-0.04
2195.96	-0.08
2196.27	-0.08
2196.59	-0.52
2196.91	-0.36
2197.22	-0.32
2197.54	0.04
2197.86	0.04
2198.18	0.64
2198.49	0.48
2198.81	0.36
2199.13	0.28
2199.44	0.48
2199.76	0.48
2200.08	0.64
2200.39	0.72
2200.71	0.52
2201.03	0.32
2201.34	0.4
2201.66	0.32
2201.98	0.24
2202.29	0.16
2202.61	0.28
2202.93	0.2
2203.24	0.16
2203.56	0.24
2203.88	0.24
2204.19	0.12
2204.51	0.24
2204.83	0.2
2205.14	0.12
2205.46	0.64
2205.78	0.64
2206.09	0.68
2206.41	0.48
2206.72	0.28
2207.04	-0.24
2207.36	-0.48
2207.67	-0.2
2207.99	0.2
2208.31	0.88
2208.62	1.12
2208.94	1.36
2209.25	0.96
2209.57	0.96
2209.89	0.48
2210.2	0.24
2210.52	0.48
2210.83	0.68
2211.15	0.64
2211.47	0.64
2211.78	0.92
2212.1	0.28
2212.41	0.24
2212.73	0.08
2213.05	0.08
2213.36	-0.2
2213.68	0.32
2213.99	0.12
2214.31	0.12
2214.62	0.12
2214.94	0.16
2215.26	0.08
2215.57	0.2
2215.89	0.4
2216.2	0.4
2216.52	0.36
2216.83	0.32
2217.15	0.24
2217.46	0.04
2217.78	0.12
2218.1	-0.08
2218.41	-0.08
2218.73	-0.12
2219.04	0.12
2219.36	0.08
2219.67	0.4
2219.99	0.4
2220.3	0.4
2220.62	0.24
2220.93	0.44
2221.25	0.4
2221.56	0.4
2221.88	0.72
2222.19	0.64
2222.51	0.68
2222.82	-0.8
2223.14	-0.48
2223.45	-0.24
2223.77	-0.08
2224.08	-0.36
2224.4	1.04
2224.71	0.72
2225.03	0.2
2225.34	0.32
2225.66	-1
2225.97	-1
2226.29	-0.64
2226.6	-0.68
2226.92	-0.96
2227.23	0.56
2227.55	0.72
2227.86	0.36
2228.18	0.48
2228.49	0.96
2228.81	1.04
2229.12	0.96
2229.44	1.24
2229.75	1.2
2230.07	0.72
2230.38	0.44
2230.69	0.36
2231.01	0.08
2231.32	0
2231.64	0.16
2231.95	0.16
2232.27	0.4
2232.58	0.44
2232.9	0.52
2233.21	0.64
2233.52	0.8
2233.84	0.64
2234.15	0.72
2234.47	0.72
2234.78	0.6
2235.1	0.64
2235.41	0.56
2235.72	0.72
2236.04	0.68
2236.35	0.64
2236.67	0.04
2236.98	0.04
2237.29	-0.24
2237.61	-0.24
2237.92	-0.36
2238.24	0.08
2238.55	0.08
2238.86	0.08
2239.18	0.04
2239.49	-0.76
2239.8	-0.8
2240.12	-0.8
2240.43	-0.8
2240.75	-0.8
2241.06	0.32
2241.37	0.52
2241.69	0.52
2242	0.52
2242.31	0.72
2242.63	0.4
2242.94	0.24
2243.26	-0.04
2243.57	2.4425e-17
2243.88	-0.2
2244.2	-0.2
2244.51	-0.24
2244.82	0.28
2245.14	0.28
2245.45	0.32
2245.76	0.52
2246.08	0.6
2246.39	0.36
2246.7	0.32
2247.02	0.32
2247.33	0.24
2247.64	0.16
2247.96	0.16
2248.27	0.2
2248.58	-0.76
2248.9	-0.88
2249.21	-0.84
2249.52	-0.84
2249.83	-0.84
2250.15	0.08
2250.46	0.08
2250.77	0.04
2251.09	0.04
2251.4	0.08
2251.71	0.2
2252.03	0.44
2252.34	0.64
2252.65	0.8
2252.96	0.76
2253.28	0.8
2253.59	0.56
2253.9	0.36
2254.21	0.52
2254.53	0.48
2254.84	2.66443e-17
2255.15	0.12
2255.47	0.12
2255.78	-0.2
2256.09	-0.08
2256.4	0.24
2256.72	0.12
2257.03	0.12
2257.34	0.28
2257.65	0.16
2257.97	0.4
2258.28	0.4
2258.59	0.52
2258.9	0.44
2259.22	0.44
2259.53	0.28
2259.84	0.32
2260.15	0.52
2260.46	0.44
2260.78	0.52
2261.09	0.44
2261.4	0.64
2261.71	0.56
2262.03	0.6
2262.34	0.52
2262.65	0.6
2262.96	0.36
2263.27	0.24
2263.59	0.6
2263.9	0.76
2264.21	0.68
2264.52	0.88
2264.83	0.8
2265.15	0.4
2265.46	0.4
2265.77	0.4
2266.08	0.2
2266.39	0.16
2266.7	0.16
2267.02	0.36
2267.33	-0.04
2267.64	0.12
2267.95	0.2
2268.26	0.24
2268.57	-0.12
2268.89	0.56
2269.2	0.4
2269.51	0.36
2269.82	0.32
2270.13	0.32
2270.44	0.04
2270.76	-0.04
2271.07	2.10945e-17
2271.38	-0.6
2271.69	-0.6
2272	-0.6
2272.31	-0.64
2272.62	-1.48
2272.93	-0.68
2273.25	-0.64
2273.56	-0.6
2273.87	-0.4
2274.18	0.8
2274.49	0.6
2274.8	0.76
2275.11	0.72
2275.42	0.68
2275.74	0.24
2276.05	0.32
2276.36	0.12
2276.67	0.12
2276.98	0.24
2277.29	0.44
2277.6	0.36
2277.91	0.44
2278.22	0.08
2278.53	-0.08
2278.85	-0.24
2279.16	-1.16
2279.47	-1.24
2279.78	-0.88
2280.09	-0.84
2280.4	-0.84
2280.71	0.08
2281.02	0.52
2281.33	0.68
2281.64	0.64
2281.95	0.6
2282.26	0.76
2282.57	0.48
2282.88	0.36
2283.19	0.36
2283.5	0.44
2283.82	0.28
2284.13	0.12
2284.44	0.12
2284.75	-0.48
2285.06	-0.56
2285.37	-0.56
2285.68	-0.16
2285.99	-0.08
2286.3	0.52
2286.61	0.52
2286.92	0.72
2287.23	0.36
2287.54	0.48
2287.85	0.56
2288.16	0.68
2288.47	0.48
2288.78	0.44
2289.09	0.2
2289.4	0.12
2289.71	0.04
2290.02	0.28
2290.33	0.28
2290.64	0.28
2290.95	0.08
2291.26	0.04
2291.57	-0.2
2291.88	-0.52
2292.19	-0.44
2292.5	-0.24
2292.81	-0.24
2293.12	-0.24
2293.43	0.08
2293.74	0
2294.05	0
2294.36	0
2294.67	0
2294.98	0
2295.29	0
2295.6	0
2295.91	0
2296.21	0
2296.52	0
2296.83	0
2297.14	0
2297.45	0
2297.76	0
2298.07	0
2298.38	0
2298.69	0
2299	0
2299.31	0
2299.62	0
2299.93	0
2300.24	0
2300.55	0
2300.85	0
2301.16	0
2301.47	0
2301.78	0
2302.09	0
2302.4	0
2302.71	0
2303.02	0
2303.33	0
2303.64	0
2303.94	0
2304.25	0
2304.56	0
2304.87	0
2305.18	0
2305.49	0
2305.8	0
2306.11	0
2306.42	0
2306.72	0
2307.03	0
2307.34	0
2307.65	0
2307.96	0
2308.27	0
2308.58	0
2308.88	0
2309.19	0
2309.5	0
2309.81	0
2310.12	0
2310.43	0
2310.74	0
2311.04	0
2311.35	0
2311.66	0
2311.97	0
2312.28	0
2312.59	0
2312.89	0
2313.2	0
2313.51	0
2313.82	0
2314.13	0
2314.43	0
2314.74	0
2315.05	0
2315.36	0
2315.67	0
2315.97	0
2316.28	0
2316.59	0
2316.9	0
2317.21	0
2317.51	0
2317.82	0
2318.13	0
2318.44	0
2318.75	0
2319.05	0
2319.36	0
2319.67	0
2319.98	0
2320.28	0
2320.59	0
2320.9	0
2321.21	0
2321.51	0
2321.82	0
2322.13	0
2322.44	0
2322.74	0
2323.05	0
2323.36	0
2323.67	0
2323.97	0
2324.28	0
2324.59	0
2324.9	0
2325.2	0
2325.51	0
2325.82	0
2326.13	0
2326.43	0
2326.74	0
2327.05	0
2327.35	0
2327.66	0
2327.97	0
2328.27	0
2328.58	0
2328.89	0
2329.2	0
2329.5	0
2329.81	0
2330.12	0
2330.42	0
2330.73	0
2331.04	0
2331.34	0
2331.65	0
2331.96	0
2332.26	0
2332.57	0
2332.88	0
2333.18	0
2333.49	0
2333.8	0
2334.1	0
2334.41	0
2334.72	0
2335.02	0
2335.33	0
2335.64	0
2335.94	0
2336.25	0
2336.56	0
2336.86	0
2337.17	0
2337.48	0
2337.78	0
2338.09	0
2338.39	0
2338.7	0
2339.01	0
2339.31	0
2339.62	0
2339.93	0
2340.23	0
2340.54	0
2340.84	0
2341.15	0
2341.46	0
2341.76	0
2342.07	0
2342.37	0
2342.68	0
2342.99	0
2343.29	0
2343.6	0
2343.9	0
2344.21	0
2344.51	0
2344.82	0
2345.13	0
2345.43	0
2345.74	0
2346.04	0
2346.35	0
2346.65	0
2346.96	0
2347.27	0
2347.57	0
2347.88	0
2348.18	0
2348.49	0
2348.79	0
2349.1	0
2349.4	0
2349.71	0
2350.01	0
2350.32	0
2350.63	0
2350.93	0
2351.24	0
2351.54	0
2351.85	0
2352.15	0
2352.46	0
2352.76	0
2353.07	0
2353.37	0
2353.68	0
2353.98	0
2354.29	0
2354.59	0
2354.9	0
2355.2	0
2355.51	0
2355.81	0
2356.12	0
2356.42	0
2356.73	0
2357.03	0
2357.34	0
2357.64	0
2357.95	0
2358.25	0
2358.55	0
2358.86	0
2359.16	0
2359.47	0
2359.77	0
2360.08	0
2360.38	0
2360.69	0
2360.99	0
2361.3	0
2361.6	0
2361.9	0
2362.21	0
2362.51	0
2362.82	0
2363.12	0
2363.43	0
2363.73	0
2364.04	0
2364.34	0
2364.64	0
2364.95	0
2365.25	0
2365.56	0
2365.86	0
2366.16	0
2366.47	0
2366.77	0
2367.08	0
2367.38	0
2367.68	0
2367.99	0
2368.29	0
2368.6	0
2368.9	0
2369.2	0
2369.51	0
2369.81	0
2370.12	0
2370.42	0
2370.72	0
2371.03	0
2371.33	0
2371.63	0
2371.94	0
2372.24	0
2372.55	0
2372.85	0
2373.15	0
2373.46	0
2373.76	0
2374.06	0
2374.37	0
2374.67	0
2374.97	0
2375.28	0
2375.58	0
2375.88	0
2376.19	0
2376.49	0
2376.79	0
2377.1	0
2377.4	0
2377.7	0
2378.01	0
2378.31	0
2378.61	0
2378.92	0
2379.22	0
2379.52	0
2379.82	0
2380.13	0
2380.43	0
2380.73	0
2381.04	0
2381.34	0
2381.64	0
2381.95	0
2382.25	0
2382.55	0
2382.85	0
2383.16	0
2383.46	0
2383.76	0
2384.06	0
2384.37	0
2384.67	0
2384.97	0
2385.28	0
2385.58	0
2385.88	0
2386.18	0
2386.49	0
2386.79	0
2387.09	0
2387.39	0
2387.69	0
2388	0
2388.3	0
2388.6	0
2388.9	0
2389.21	0
2389.51	0
2389.81	0
2390.11	0
2390.42	0
2390.72	0
2391.02	0
2391.32	0
2391.62	0
2391.93	0
2392.23	0
2392.53	0
2392.83	0
2393.13	0
2393.44	0
2393.74	0
2394.04	0
2394.34	0
2394.64	0
2394.95	0
2395.25	0
2395.55	0
2395.85	0
2396.15	0
2396.45	0
2396.76	0
2397.06	0
2397.36	0
2397.66	0
2397.96	0
2398.26	0
2398.57	0
2398.87	0
2399.17	0
2399.47	0
2399.77	0
2400.07	0
2400.37	0
2400.68	0
2400.98	0
2401.28	0
2401.58	0
2401.88	0
2402.18	0
2402.48	0
2402.79	0
2403.09	0
2403.39	0
2403.69	0
2403.99	0
2404.29	0
2404.59	0
2404.89	0
2405.19	0
2405.5	0
2405.8	0
2406.1	0
2406.4	0
2406.7	0
2407	0
2407.3	0
2407.6	0
2407.9	0
2408.2	0
2408.5	0
2408.8	0
2409.11	0
2409.41	0
2409.71	0
2410.01	0
2410.31	0
2410.61	0
2410.91	0
2411.21	0
2411.51	0
2411.81	0
2412.11	0
2412.41	0
2412.71	0
2413.01	0
2413.31	0
2413.61	0
2413.91	0
2414.21	0
2414.51	0
2414.81	0
2415.12	0
2415.42	0
2415.72	0
2416.02	0
2416.32	0
2416.62	0
2416.92	0
2417.22	0
2417.52	0
2417.82	0
2418.12	0
2418.42	0
2418.72	0
2419.02	0
2419.32	0
2419.62	0
2419.92	0
2420.22	0
2420.52	0
2420.82	0
2421.12	0
2421.42	0
2421.71	0
2422.01	0
2422.31	0
2422.61	0
2422.91	0
2423.21	0
2423.51	0
2423.81	0
2424.11	0
2424.41	0
2424.71	0
2425.01	0
2425.31	0
2425.61	0
2425.91	0
2426.21	0
2426.51	0
2426.81	0
2427.11	0
2427.41	0
2427.7	0
2428	0
2428.3	0
2428.6	0
2428.9	0
2429.2	0
2429.5	0
2429.8	0
2430.1	0
2430.4	0
2430.7	0
2430.99	0
2431.29	0
2431.59	0
2431.89	0
2432.19	0
2432.49	0
2432.79	0
2433.09	0
2433.39	0
2433.68	0
2433.98	0
2434.28	0
2434.58	0
2434.88	0
2435.18	0
2435.48	0
2435.78	0
2436.07	0
2436.37	0
2436.67	0
2436.97	0
2437.27	0
2437.57	0
2437.86	0
2438.16	0
2438.46	0
2438.76	0
2439.06	0
2439.36	0
2439.66	0
2439.95	0
2440.25	0
2440.55	0
2440.85	0
2441.15	0
2441.44	0
2441.74	0
2442.04	0
2442.34	0
2442.64	0
2442.93	0
2443.23	0
2443.53	0
2443.83	0
2444.13	0
2444.42	0
2444.72	0
2445.02	0
2445.32	0
2445.62	0
2445.91	0
2446.21	0
2446.51	0
2446.81	0
2447.1	0
2447.4	0
2447.7	0
2448	0
2448.3	0
2448.59	0
2448.89	0
2449.19	0
2449.49	0
2449.78	0
2450.08	0
2450.38	0
2450.68	0
2450.97	0
2451.27	0
2451.57	0
2451.87	0
2452.16	0
2452.46	0
2452.76	0
2453.05	0
2453.35	0
2453.65	0
2453.95	0
2454.24	0
2454.54	0
2454.84	0
2455.13	0
2455.43	0
2455.73	0
2456.03	0
2456.32	0
2456.62	0
2456.92	0
2457.21	0
2457.51	0
2457.81	0
2458.1	0
2458.4	0
2458.7	0
2458.99	0
2459.29	0
2459.59	0
2459.88	0
2460.18	0
2460.48	0
2460.77	0
2461.07	0
2461.37	0
2461.66	0
2461.96	0
2462.26	0
2462.55	0
2462.85	0
2463.15	0
2463.44	0
2463.74	0
2464.04	0
2464.33	0
2464.63	0
2464.92	0
2465.22	0
2465.52	0
2465.81	0
2466.11	0
2466.41	0
2466.7	0
2467	0
2467.29	0
2467.59	0
2467.89	0
2468.18	0
2468.48	0
2468.77	0
2469.07	0
2469.37	0
2469.66	0
2469.96	0
2470.25	0
2470.55	0
2470.84	0
2471.14	0
2471.44	0
2471.73	0
2472.03	0
2472.32	0
2472.62	0
2472.91	0
2473.21	0
2473.51	0
2473.8	0
2474.1	0
2474.39	0
2474.69	0
2474.98	0
2475.28	0
2475.57	0
2475.87	0
2476.17	0
2476.46	0
2476.76	0
2477.05	0
2477.35	0
2477.64	0
2477.94	0
2478.23	0
2478.53	0
2478.82	0
2479.12	0
2479.41	0
2479.71	0
2480	0
2480.3	0
2480.59	0
2480.89	0
2481.18	0
2481.48	0
2481.77	0
2482.07	0
2482.36	0
2482.66	0
2482.95	0
2483.25	0
2483.54	0
2483.84	0
2484.13	0
2484.43	0
2484.72	0
2485.02	0
2485.31	0
2485.6	0
2485.9	0
2486.19	0
2486.49	0
2486.78	0
2487.08	0
2487.37	0
2487.67	0
2487.96	0
2488.26	0
2488.55	0
2488.84	0
2489.14	0
2489.43	0
2489.73	0
2490.02	0
2490.32	0
2490.61	0
2490.9	0
2491.2	0
2491.49	0
2491.79	0
2492.08	0
2492.37	0
2492.67	0
2492.96	0
2493.26	0
2493.55	0
2493.84	0
2494.14	0
2494.43	0
2494.73	0
2495.02	0
2495.31	0
2495.61	0
2495.9	0
2496.2	0
2496.49	0
2496.78	0
2497.08	0
2497.37	0
2497.66	0
2497.96	0
2498.25	0
2498.54	0
2498.84	0
2499.13	0
2499.43	0
2499.72	0
2500.01	0
2500.31	0
2500.6	0
2500.89	0
2501.19	0
2501.48	0
2501.77	0
2502.07	0
2502.36	0
2502.65	0
2502.95	0
2503.24	0
2503.53	0
2503.82	0
2504.12	0
2504.41	0
2504.7	0
2505	0
2505.29	0
2505.58	0
2505.88	0
2506.17	0
2506.46	0
2506.76	0
2507.05	0
2507.34	0
2507.63	0
2507.93	0
2508.22	0
2508.51	0
2508.8	0
2509.1	0
2509.39	0
2509.68	0
2509.98	0
2510.27	0
2510.56	0
2510.85	0
2511.15	0
2511.44	0
2511.73	0
2512.02	0
2512.32	0
2512.61	0
2512.9	0
2513.19	0
2513.49	0
2513.78	0
2514.07	0
2514.36	0
2514.65	0
2514.95	0
2515.24	0
2515.53	0
2515.82	0
2516.12	0
2516.41	0
2516.7	0
2516.99	0
2517.28	0
2517.58	0
2517.87	0
2518.16	0
2518.45	0
2518.74	0
2519.04	0
2519.33	0
2519.62	0
2519.91	0
2520.2	0
2520.5	0
2520.79	0
2521.08	0
2521.37	0
2521.66	0
2521.95	0
2522.25	0
2522.54	0
2522.83	0
2523.12	0
2523.41	0
2523.7	0
2523.99	0
2524.29	0
2524.58	0
2524.87	0
2525.16	0
2525.45	0
2525.74	0
2526.03	0
2526.33	0
2526.62	0
2526.91	0
2527.2	0
2527.49	0
2527.78	0
2528.07	0
2528.36	0
2528.66	0
2528.95	0
2529.24	0
2529.53	0
2529.82	0
2530.11	0
2530.4	0
2530.69	0
2530.98	0
2531.27	0
2531.57	0
2531.86	0
2532.15	0
2532.44	0
2532.73	0
2533.02	0
2533.31	0
2533.6	0
2533.89	0
2534.18	0
2534.47	0
2534.76	0
2535.05	0
2535.35	0
2535.64	0
2535.93	0
2536.22	0
2536.51	0
2536.8	0
2537.09	0
2537.38	0
2537.67	0
2537.96	0
2538.25	0
2538.54	0
2538.83	0
2539.12	0
2539.41	0
2539.7	0
2539.99	0
2540.28	0
2540.57	0
2540.86	0
2541.15	0
2541.44	0
2541.73	0
2542.02	0
2542.31	0
2542.6	0
2542.89	0
2543.18	0
2543.47	0
2543.76	0
2544.05	0
2544.34	0
2544.63	0
2544.92	0
2545.21	0
2545.5	0
2545.79	0
2546.08	0
2546.37	0
2546.66	0
2546.95	0
2547.24	0
2547.53	0
2547.82	0
2548.11	0
2548.4	0
2548.69	0
2548.98	0
2549.27	0
2549.55	0
2549.84	0
2550.13	0
2550.42	0
2550.71	0
2551	0
2551.29	0
2551.58	0
2551.87	0
2552.16	0
2552.45	0
2552.74	0
2553.03	0
2553.31	0
2553.6	0
2553.89	0
2554.18	0
2554.47	0
2554.76	0
2555.05	0
2555.34	0
2555.63	0
2555.92	0
2556.2	0
2556.49	0
2556.78	0
2557.07	0
2557.36	0
2557.65	0
2557.94	0
2558.23	0
2558.51	0
2558.8	0
2559.09	0
2559.38	0
2559.67	0
2559.96	0
2560.25	0
2560.53	0
2560.82	0
2561.11	0
2561.4	0
2561.69	0
2561.98	0
2562.27	0
2562.55	0
2562.84	0
2563.13	0
2563.42	0
2563.71	0
2564	0
2564.28	0
2564.57	0
2564.86	0
2565.15	0
2565.44	0
2565.72	0
2566.01	0
2566.3	0
2566.59	0
2566.88	0
2567.16	0
2567.45	0
2567.74	0
2568.03	0
2568.32	0
2568.6	0
2568.89	0
2569.18	0
2569.47	0
2569.75	0

