Source: Spectrum Viewer

Chart: Pulse Spectrum

Series: 
Wavelength (nm)	S (a.u.)
1179.9	0
1180.29	0
1180.68	0
1181.06	0
1181.45	0
1181.83	0
1182.22	0
1182.6	0
1182.99	0
1183.38	0
1183.76	0
1184.15	0
1184.53	0
1184.92	0
1185.3	0
1185.69	0
1186.07	0
1186.46	0
1186.85	0
1187.23	0
1187.62	0
1188	0
1188.39	0
1188.77	0
1189.16	0
1189.54	0
1189.93	0
1190.31	0
1190.7	0
1191.08	0
1191.47	0
1191.85	0
1192.24	0
1192.62	0
1193.01	0
1193.39	0
1193.78	0
1194.16	0
1194.55	0
1194.93	0
1195.32	0
1195.7	0
1196.09	0
1196.47	0
1196.86	0
1197.24	0
1197.63	0
1198.01	0
1198.4	0
1198.78	0
1199.16	0
1199.55	0
1199.93	0
1200.32	0
1200.7	0
1201.09	0
1201.47	0
1201.86	0
1202.24	0
1202.63	0
1203.01	0
1203.39	0
1203.78	0
1204.16	0
1204.55	0
1204.93	0
1205.32	0
1205.7	0
1206.08	0
1206.47	0
1206.85	0
1207.24	0
1207.62	0
1208	0
1208.39	0
1208.77	0
1209.16	0
1209.54	0
1209.92	0
1210.31	0
1210.69	0
1211.08	0
1211.46	0
1211.84	0
1212.23	0
1212.61	0
1213	0
1213.38	0
1213.76	0
1214.15	0
1214.53	0
1214.91	0
1215.3	0
1215.68	0
1216.06	0
1216.45	0
1216.83	0
1217.22	0
1217.6	0
1217.98	0
1218.37	0
1218.75	0
1219.13	0
1219.52	0
1219.9	0
1220.28	0
1220.67	0
1221.05	0
1221.43	0
1221.82	0
1222.2	0
1222.58	0
1222.97	0
1223.35	0
1223.73	0
1224.11	0
1224.5	0
1224.88	0
1225.26	0
1225.65	0
1226.03	0
1226.41	0
1226.8	0
1227.18	0
1227.56	0
1227.94	0
1228.33	0
1228.71	0
1229.09	0
1229.47	0
1229.86	0
1230.24	0
1230.62	0
1231.01	0
1231.39	0
1231.77	0
1232.15	0
1232.54	0
1232.92	0
1233.3	0
1233.68	0
1234.07	0
1234.45	0
1234.83	0
1235.21	0
1235.6	0
1235.98	0
1236.36	0
1236.74	0
1237.12	0
1237.51	0
1237.89	0
1238.27	0
1238.65	0
1239.04	0
1239.42	0
1239.8	0
1240.18	0
1240.56	0
1240.95	0
1241.33	0
1241.71	0
1242.09	0
1242.47	0
1242.86	0
1243.24	0
1243.62	0
1244	0
1244.38	0
1244.77	0
1245.15	0
1245.53	0
1245.91	0
1246.29	0
1246.67	0
1247.06	0
1247.44	0
1247.82	0
1248.2	0
1248.58	0
1248.96	0
1249.34	0
1249.73	0
1250.11	0
1250.49	0
1250.87	0
1251.25	0
1251.63	0
1252.01	0
1252.4	0
1252.78	0
1253.16	0
1253.54	0
1253.92	0
1254.3	0
1254.68	0
1255.06	0
1255.45	0
1255.83	0
1256.21	0
1256.59	0
1256.97	0
1257.35	0
1257.73	0
1258.11	0
1258.49	0
1258.87	0
1259.26	0
1259.64	0
1260.02	0
1260.4	0
1260.78	0
1261.16	0
1261.54	0
1261.92	0
1262.3	0
1262.68	0
1263.06	0
1263.44	0
1263.82	0
1264.21	0
1264.59	0
1264.97	0
1265.35	0
1265.73	0
1266.11	0
1266.49	0
1266.87	0
1267.25	0
1267.63	0
1268.01	0
1268.39	0
1268.77	0
1269.15	0
1269.53	0
1269.91	0
1270.29	0
1270.67	0
1271.05	0
1271.43	0
1271.81	0
1272.19	0
1272.57	0
1272.95	0
1273.33	0
1273.71	0
1274.09	0
1274.47	0
1274.85	0
1275.23	0
1275.61	0
1275.99	0
1276.37	0
1276.75	0
1277.13	0
1277.51	0
1277.89	0
1278.27	0
1278.65	0
1279.03	0
1279.41	0
1279.79	0
1280.17	0
1280.55	0
1280.93	0
1281.31	0
1281.69	0
1282.07	0
1282.45	0
1282.82	0
1283.2	0
1283.58	0
1283.96	0
1284.34	0
1284.72	0
1285.1	0
1285.48	0
1285.86	0
1286.24	0
1286.62	0
1287	0
1287.38	0
1287.75	0
1288.13	0
1288.51	0
1288.89	0
1289.27	0
1289.65	0
1290.03	0
1290.41	0
1290.79	0
1291.17	0
1291.54	0
1291.92	0
1292.3	0
1292.68	0
1293.06	0
1293.44	0
1293.82	0
1294.2	0
1294.57	0
1294.95	0
1295.33	0
1295.71	0
1296.09	0
1296.47	0
1296.85	0
1297.22	0
1297.6	0
1297.98	0
1298.36	0
1298.74	0
1299.12	0
1299.5	0
1299.87	0
1300.25	0
1300.63	0
1301.01	0
1301.39	0
1301.77	0
1302.14	0
1302.52	0
1302.9	0
1303.28	0
1303.66	0
1304.03	0
1304.41	0
1304.79	0
1305.17	0
1305.55	0
1305.92	0
1306.3	0
1306.68	0
1307.06	0
1307.44	0
1307.81	0
1308.19	0
1308.57	0
1308.95	0
1309.32	0
1309.7	0
1310.08	0
1310.46	0
1310.84	0
1311.21	0
1311.59	0
1311.97	0
1312.35	0
1312.72	0
1313.1	0
1313.48	0
1313.86	0
1314.23	0
1314.61	0
1314.99	0
1315.37	0
1315.74	0
1316.12	0
1316.5	0
1316.87	0
1317.25	0
1317.63	0
1318.01	0
1318.38	0
1318.76	0
1319.14	0
1319.52	0
1319.89	0
1320.27	0
1320.65	0
1321.02	0
1321.4	0
1321.78	0
1322.15	0
1322.53	0
1322.91	0
1323.29	0
1323.66	0
1324.04	0
1324.42	0
1324.79	0
1325.17	0
1325.55	0
1325.92	0
1326.3	0
1326.68	0
1327.05	0
1327.43	0
1327.81	0
1328.18	0
1328.56	0
1328.94	0
1329.31	0
1329.69	0
1330.06	0
1330.44	0
1330.82	0
1331.19	0
1331.57	0
1331.95	0
1332.32	0
1332.7	0
1333.08	0
1333.45	0
1333.83	0
1334.2	0
1334.58	0
1334.96	0
1335.33	0
1335.71	0
1336.08	0
1336.46	0
1336.84	0
1337.21	0
1337.59	0
1337.96	0
1338.34	0
1338.72	0
1339.09	0
1339.47	0
1339.84	0
1340.22	0
1340.6	0
1340.97	0
1341.35	0
1341.72	0
1342.1	0
1342.47	0
1342.85	0
1343.23	0
1343.6	0
1343.98	0
1344.35	0
1344.73	0
1345.1	0
1345.48	0
1345.85	0
1346.23	0
1346.61	0
1346.98	0
1347.36	0
1347.73	0
1348.11	0
1348.48	0
1348.86	0
1349.23	0
1349.61	0
1349.98	0
1350.36	0
1350.73	0
1351.11	0
1351.48	0
1351.86	0
1352.23	0
1352.61	0
1352.98	0
1353.36	0
1353.73	0
1354.11	0
1354.48	0
1354.86	0
1355.23	0
1355.61	0
1355.98	0
1356.36	0
1356.73	0
1357.11	0
1357.48	0
1357.86	0
1358.23	0
1358.61	0
1358.98	0
1359.35	0
1359.73	0
1360.1	0
1360.48	0
1360.85	0
1361.23	0
1361.6	0
1361.98	0
1362.35	0
1362.72	0
1363.1	0
1363.47	0
1363.85	0
1364.22	0
1364.6	0
1364.97	0
1365.34	0
1365.72	0
1366.09	0
1366.47	0
1366.84	0
1367.22	0
1367.59	0
1367.96	0
1368.34	0
1368.71	0
1369.09	0.04
1369.46	-0.56
1369.83	-0.56
1370.21	-0.32
1370.58	-0.28
1370.96	-0.24
1371.33	0.36
1371.7	0.36
1372.08	0.44
1372.45	0.4
1372.82	0.4
1373.2	0.64
1373.57	0.64
1373.95	0.44
1374.32	0.48
1374.69	0.4
1375.07	0.16
1375.44	0.16
1375.81	0.04
1376.19	0
1376.56	0.12
1376.93	0.2
1377.31	0.4
1377.68	0.44
1378.05	0.84
1378.43	0.72
1378.8	1.08
1379.17	0.88
1379.55	1.04
1379.92	0.68
1380.29	0.68
1380.67	0.24
1381.04	0.6
1381.41	0.4
1381.79	0.72
1382.16	0.72
1382.53	0.76
1382.91	-0.56
1383.28	-0.32
1383.65	-0.64
1384.03	-0.64
1384.4	-0.68
1384.77	0.64
1385.14	0.6
1385.52	0.76
1385.89	0.8
1386.26	0.8
1386.64	0.52
1387.01	0.32
1387.38	0.12
1387.75	0.12
1388.13	0.16
1388.5	0.08
1388.87	0.4
1389.25	0.44
1389.62	0.32
1389.99	0.08
1390.36	0.36
1390.74	0.52
1391.11	0.6
1391.48	1
1391.85	1.2
1392.23	1.04
1392.6	0.84
1392.97	0.72
1393.34	0.4
1393.72	0.4
1394.09	0.44
1394.46	0.16
1394.83	0.24
1395.21	0.24
1395.58	0.24
1395.95	0.2
1396.32	0.36
1396.69	0.44
1397.07	0.44
1397.44	0.6
1397.81	0.64
1398.18	0.6
1398.55	0.44
1398.93	0.76
1399.3	0.6
1399.67	0.44
1400.04	0.32
1400.41	1.16
1400.79	1.04
1401.16	1.04
1401.53	1.04
1401.9	1.56
1402.27	0.88
1402.65	0.92
1403.02	0.92
1403.39	0.92
1403.76	0
1404.13	-0.16
1404.51	-0.32
1404.88	-0.04
1405.25	0.04
1405.62	0.48
1405.99	0.48
1406.36	0.4
1406.74	0.16
1407.11	0.44
1407.48	0.64
1407.85	-0.48
1408.22	-0.48
1408.59	-0.52
1408.96	-0.52
1409.34	-0.24
1409.71	1
1410.08	1.32
1410.45	1.56
1410.82	1.36
1411.19	1.12
1411.56	1.16
1411.93	0.88
1412.31	0.64
1412.68	0.72
1413.05	0.6
1413.42	0.44
1413.79	0.44
1414.16	0.4
1414.53	0.56
1414.9	0.2
1415.27	0.2
1415.65	0.16
1416.02	0.4
1416.39	0.2
1416.76	0.4
1417.13	0.56
1417.5	0.56
1417.87	0.4
1418.24	0.36
1418.61	0.36
1418.98	0.2
1419.35	0.64
1419.73	0.84
1420.1	0.76
1420.47	0.88
1420.84	0.88
1421.21	0.44
1421.58	0.52
1421.95	0.44
1422.32	0.76
1422.69	0.76
1423.06	0.84
1423.43	0.76
1423.8	0.84
1424.17	0.92
1424.54	1.28
1424.91	1.56
1425.28	1.32
1425.65	1.32
1426.02	0.8
1426.39	0.44
1426.76	-0.28
1427.14	-0.28
1427.51	-0.24
1427.88	-0.24
1428.25	0.08
1428.62	0.44
1428.99	0.44
1429.36	0.72
1429.73	1.24
1430.1	1.08
1430.47	1.12
1430.84	1.48
1431.21	1.08
1431.58	0.64
1431.95	0.6
1432.32	0.36
1432.69	0
1433.06	0
1433.43	-0.04
1433.8	-0.16
1434.17	0.12
1434.54	0.24
1434.91	0.36
1435.28	0.4
1435.64	0.44
1436.01	-0.24
1436.38	0.24
1436.75	0.12
1437.12	0.04
1437.49	-5.55112e-17
1437.86	0.6
1438.23	0.08
1438.6	0.2
1438.97	0.6
1439.34	0.72
1439.71	0.72
1440.08	0.72
1440.45	0.6
1440.82	-0.4
1441.19	-0.32
1441.56	-0.32
1441.93	-0.2
1442.3	-0.12
1442.67	-0.88
1443.03	-0.96
1443.4	-0.88
1443.77	-0.72
1444.14	-0.8
1444.51	0.8
1444.88	0.68
1445.25	0.68
1445.62	0.44
1445.99	0.44
1446.36	0.28
1446.73	0.52
1447.09	0.44
1447.46	0.44
1447.83	0.76
1448.2	0.68
1448.57	0.32
1448.94	0.36
1449.31	0.24
1449.68	0.44
1450.05	0.44
1450.41	0.84
1450.78	0.48
1451.15	0.56
1451.52	0.72
1451.89	0.72
1452.26	0.6
1452.63	0.92
1453	0.92
1453.36	0.24
1453.73	0.52
1454.1	0.64
1454.47	0.64
1454.84	0.72
1455.21	0.96
1455.57	0.28
1455.94	0.04
1456.31	0.24
1456.68	0.12
1457.05	-0.04
1457.42	0.44
1457.78	0.4
1458.15	0.32
1458.52	0.64
1458.89	0.72
1459.26	0.72
1459.63	0.96
1459.99	0.96
1460.36	0.6
1460.73	0.72
1461.1	0.64
1461.47	0.52
1461.83	0.52
1462.2	0.88
1462.57	0.8
1462.94	0.92
1463.31	0.88
1463.67	0.76
1464.04	0.24
1464.41	0.12
1464.78	-0.56
1465.15	-0.64
1465.51	-0.52
1465.88	-0.36
1466.25	-0.12
1466.62	0.52
1466.98	0.72
1467.35	0.6
1467.72	0.8
1468.09	0.56
1468.46	0.8
1468.82	0.96
1469.19	0.96
1469.56	1.32
1469.93	1.24
1470.29	0.96
1470.66	0.8
1471.03	0.84
1471.4	0.28
1471.76	0.28
1472.13	0.4
1472.5	0.32
1472.86	0.44
1473.23	0.44
1473.6	0.44
1473.97	0.4
1474.33	0.28
1474.7	0.12
1475.07	0.12
1475.44	0.24
1475.8	-0.08
1476.17	-0.08
1476.54	0.36
1476.9	0.36
1477.27	0.32
1477.64	1.32
1478	1.44
1478.37	1.12
1478.74	1.2
1479.11	1.24
1479.47	0.44
1479.84	0.36
1480.21	0.24
1480.57	0.24
1480.94	0.76
1481.31	1.2
1481.67	1.36
1482.04	1.36
1482.41	1.36
1482.77	0.72
1483.14	0.4
1483.51	0.48
1483.87	0.56
1484.24	0.48
1484.61	0.6
1484.97	0.56
1485.34	0.32
1485.71	-0.76
1486.07	-0.6
1486.44	-0.6
1486.81	-0.44
1487.17	-0.48
1487.54	0.52
1487.9	0.72
1488.27	0.6
1488.64	0.56
1489	0.56
1489.37	0.92
1489.74	0.56
1490.1	0.8
1490.47	0.76
1490.83	0.92
1491.2	0.68
1491.57	0.72
1491.93	0.56
1492.3	0.4
1492.66	0.24
1493.03	0.12
1493.4	0.12
1493.76	0.04
1494.13	0.28
1494.49	0.52
1494.86	0.56
1495.23	0.52
1495.59	0.6
1495.96	-0.56
1496.32	-0.32
1496.69	-0.24
1497.06	0.04
1497.42	-0.4
1497.79	0.6
1498.15	0.12
1498.52	0.04
1498.88	0.2
1499.25	0.56
1499.62	0.12
1499.98	0.28
1500.35	0.36
1500.71	0.12
1501.08	0.12
1501.44	0.48
1501.81	0.32
1502.17	0.2
1502.54	0.08
1502.9	0.08
1503.27	0.08
1503.64	0.08
1504	0.24
1504.37	0.16
1504.73	0.32
1505.1	0.6
1505.46	0.8
1505.83	0.64
1506.19	0.8
1506.56	0.64
1506.92	0.68
1507.29	0.6
1507.65	0.88
1508.02	0.72
1508.38	0.72
1508.75	0.56
1509.11	0.48
1509.48	0.44
1509.84	0.64
1510.21	0.96
1510.57	1.12
1510.94	1.08
1511.3	0.96
1511.67	0.76
1512.03	0.88
1512.4	0.56
1512.76	0.56
1513.13	-0.44
1513.49	-0.28
1513.85	-0.6
1514.22	-0.52
1514.58	-0.52
1514.95	0.48
1515.31	0.32
1515.68	0.32
1516.04	0.4
1516.41	0.4
1516.77	0.52
1517.14	0.52
1517.5	0.64
1517.86	0.52
1518.23	1.4
1518.59	1.28
1518.96	1.28
1519.32	1.04
1519.69	1.32
1520.05	1.08
1520.41	1.36
1520.78	1.72
1521.14	1.72
1521.51	1.72
1521.87	1.12
1522.24	1.44
1522.6	1.08
1522.96	1.08
1523.33	1.08
1523.69	1.08
1524.06	0.92
1524.42	1.28
1524.78	1.28
1525.15	0.96
1525.51	1
1525.88	0.68
1526.24	0.36
1526.6	0.48
1526.97	0.64
1527.33	0.96
1527.69	1.04
1528.06	1.4
1528.42	1.28
1528.79	1.4
1529.15	0.4
1529.51	0.12
1529.88	-0.2
1530.24	-0.2
1530.6	-0.44
1530.97	0.68
1531.33	0.92
1531.69	0.88
1532.06	0.92
1532.42	1.04
1532.78	0.68
1533.15	0.64
1533.51	0.64
1533.87	0.72
1534.24	0.56
1534.6	0.92
1534.96	0.8
1535.33	0.96
1535.69	0.84
1536.05	0.84
1536.42	0.6
1536.78	0.48
1537.14	0.48
1537.51	0.76
1537.87	0.92
1538.23	0.64
1538.6	0.68
1538.96	0.72
1539.32	0.52
1539.68	0.52
1540.05	1
1540.41	1.04
1540.77	0.8
1541.14	1
1541.5	0.88
1541.86	0.88
1542.23	1.12
1542.59	1.4
1542.95	1.16
1543.31	1.52
1543.68	1.08
1544.04	0.76
1544.4	0.52
1544.76	1.04
1545.13	0.64
1545.49	0.84
1545.85	0.92
1546.21	1.08
1546.58	0.68
1546.94	0.8
1547.3	0.96
1547.66	0.88
1548.03	0.68
1548.39	1.04
1548.75	0.92
1549.11	0.6
1549.48	0.96
1549.84	1
1550.2	0.48
1550.56	0.48
1550.93	0.68
1551.29	0.32
1551.65	0.4
1552.01	0.4
1552.37	0.44
1552.74	0.16
1553.1	0.2
1553.46	0.08
1553.82	0.2
1554.18	0.24
1554.55	0.6
1554.91	0.56
1555.27	0.84
1555.63	0.72
1555.99	0.72
1556.36	0.4
1556.72	-1.04
1557.08	-1.24
1557.44	-1.08
1557.8	-1
1558.17	-1.04
1558.53	0.52
1558.89	0.64
1559.25	0.96
1559.61	0.8
1559.97	0.88
1560.34	0.76
1560.7	0.8
1561.06	0.6
1561.42	0.88
1561.78	0.8
1562.14	0.72
1562.5	0.76
1562.87	0.48
1563.23	0.64
1563.59	0.4
1563.95	0.52
1564.31	0.4
1564.67	0.44
1565.03	0.08
1565.4	0.68
1565.76	0.84
1566.12	0.68
1566.48	0.76
1566.84	1.08
1567.2	1.24
1567.56	0.84
1567.92	1.04
1568.29	1.2
1568.65	0.96
1569.01	0.84
1569.37	0.64
1569.73	0.48
1570.09	0.28
1570.45	0.12
1570.81	-0.12
1571.17	0.32
1571.53	0.28
1571.89	0.6
1572.26	0.72
1572.62	0.96
1572.98	1.72
1573.34	1.84
1573.7	1.6
1574.06	2.08
1574.42	1.76
1574.78	0.84
1575.14	1
1575.5	0.96
1575.86	-0.44
1576.22	2.88398e-17
1576.58	0.2
1576.94	-0.08
1577.3	0.36
1577.67	1.24
1578.03	0.88
1578.39	1.2
1578.75	1.2
1579.11	1
1579.47	1.28
1579.83	1.6
1580.19	1.28
1580.55	1.28
1580.91	1.04
1581.27	0.88
1581.63	0.6
1581.99	0.56
1582.35	0.8
1582.71	0.68
1583.07	0.68
1583.43	1.56
1583.79	1.52
1584.15	1.52
1584.51	1.84
1584.87	1.84
1585.23	0.76
1585.59	0.76
1585.95	0.52
1586.31	0.2
1586.67	0.08
1587.03	0.12
1587.39	0.12
1587.75	0.12
1588.11	0.36
1588.47	0.32
1588.83	0.32
1589.19	0.32
1589.55	0.32
1589.91	0.44
1590.27	0.52
1590.63	0.72
1590.99	1
1591.35	1.16
1591.71	0.8
1592.07	0.68
1592.42	0.56
1592.78	0.52
1593.14	0.48
1593.5	0.6
1593.86	0.6
1594.22	0.84
1594.58	0.6
1594.94	0.52
1595.3	0.56
1595.66	0.6
1596.02	0.6
1596.38	1.08
1596.74	1.16
1597.1	1.28
1597.46	1.24
1597.81	0.88
1598.17	0.64
1598.53	0.52
1598.89	0.24
1599.25	0.44
1599.61	0.44
1599.97	0.28
1600.33	0.4
1600.69	0.48
1601.05	0.64
1601.4	0.68
1601.76	0.52
1602.12	0.96
1602.48	0.88
1602.84	0.56
1603.2	0.56
1603.56	0.64
1603.92	0.2
1604.28	0.24
1604.63	0.64
1604.99	0.6
1605.35	0.8
1605.71	1
1606.07	1.12
1606.43	0.68
1606.79	0.88
1607.14	0.8
1607.5	0.52
1607.86	0.56
1608.22	0.56
1608.58	0.36
1608.94	0.36
1609.29	0.36
1609.65	-0.04
1610.01	-0.04
1610.37	0.04
1610.73	-0.08
1611.09	0.24
1611.44	0.72
1611.8	0.92
1612.16	0.96
1612.52	1.2
1612.88	0.84
1613.24	0.64
1613.59	0.44
1613.95	0.68
1614.31	0.52
1614.67	0.8
1615.03	0.92
1615.38	1.12
1615.74	1
1616.1	1.2
1616.46	1.24
1616.82	1.24
1617.17	1.4
1617.53	1.36
1617.89	1.08
1618.25	0.96
1618.6	1
1618.96	0.8
1619.32	0.72
1619.68	0.72
1620.04	0.92
1620.39	0.48
1620.75	0.48
1621.11	0.48
1621.47	0.48
1621.82	0.08
1622.18	0.44
1622.54	0.28
1622.9	0.16
1623.25	-0.8
1623.61	-0.64
1623.97	-0.8
1624.33	-0.4
1624.68	-0.6
1625.04	0.36
1625.4	0.2
1625.75	-0.24
1626.11	-0.2
1626.47	0.12
1626.83	0.12
1627.18	0.44
1627.54	1.52
1627.9	1.08
1628.26	1.16
1628.61	1.16
1628.97	1.32
1629.33	0.68
1629.68	0.68
1630.04	0.8
1630.4	0.2
1630.75	-0.12
1631.11	-0.12
1631.47	-0.12
1631.83	2.22261e-18
1632.18	1.12
1632.54	1.08
1632.9	1.44
1633.25	1.52
1633.61	1.12
1633.97	0.68
1634.32	0.56
1634.68	0.28
1635.04	0.56
1635.39	0.8
1635.75	0.72
1636.11	0.8
1636.46	0.84
1636.82	0.68
1637.18	0.4
1637.53	0.64
1637.89	0.6
1638.25	0.84
1638.6	0.76
1638.96	0.84
1639.31	0.72
1639.67	0.8
1640.03	0.76
1640.38	0.72
1640.74	1.32
1641.1	1.4
1641.45	1.32
1641.81	1
1642.16	1.16
1642.52	0.56
1642.88	0.36
1643.23	-0.08
1643.59	0.08
1643.95	-0.16
1644.3	0.36
1644.66	0.4
1645.01	1.04
1645.37	0.92
1645.73	1
1646.08	0.4
1646.44	0.76
1646.79	-2.88398e-17
1647.15	-3.33053e-18
1647.51	0.2
1647.86	0.32
1648.22	-3.44166e-17
1648.57	-0.28
1648.93	-0.28
1649.28	-0.32
1649.64	-0.44
1650	-0.36
1650.35	0.44
1650.71	0.48
1651.06	0.28
1651.42	0.28
1651.77	0.04
1652.13	0.2
1652.48	0.52
1652.84	0.52
1653.2	0.6
1653.55	0.68
1653.91	0.56
1654.26	0.16
1654.62	0.12
1654.97	0.12
1655.33	0.12
1655.68	0.28
1656.04	0.28
1656.39	0.44
1656.75	0.36
1657.1	0.56
1657.46	0.36
1657.81	0.84
1658.17	0.88
1658.52	1.08
1658.88	0.88
1659.23	0.88
1659.59	0.4
1659.94	0.28
1660.3	0.08
1660.65	0.08
1661.01	0.08
1661.36	0.08
1661.72	0
1662.07	0.44
1662.43	0.72
1662.78	0.88
1663.14	0.88
1663.49	1.32
1663.85	0.92
1664.2	0.88
1664.56	0.72
1664.91	-1
1665.27	-1.16
1665.62	-0.92
1665.98	-0.8
1666.33	-0.8
1666.69	1.04
1667.04	0.84
1667.39	0.64
1667.75	1
1668.1	1.4
1668.46	1.56
1668.81	1.52
1669.17	1.44
1669.52	0.72
1669.88	0.32
1670.23	0.6
1670.58	0.64
1670.94	0.68
1671.29	0.76
1671.65	1.44
1672	1.2
1672.36	1.68
1672.71	1.72
1673.06	1.88
1673.42	1.04
1673.77	0.72
1674.13	0.48
1674.48	0.44
1674.83	0.2
1675.19	0.68
1675.54	0.68
1675.9	0.4
1676.25	0.44
1676.6	0.44
1676.96	0.28
1677.31	0.36
1677.67	0.44
1678.02	0.6
1678.37	0.64
1678.73	1.08
1679.08	1
1679.43	0.88
1679.79	0.64
1680.14	0.72
1680.5	0.04
1680.85	0.08
1681.2	0.08
1681.56	0.12
1681.91	2.4425e-17
1682.26	0.32
1682.62	0.28
1682.97	0.36
1683.32	0.4
1683.68	0.56
1684.03	0.6
1684.38	0.6
1684.74	0.64
1685.09	0.56
1685.44	0.68
1685.8	0.4
1686.15	0.4
1686.5	0.84
1686.86	0.84
1687.21	0.36
1687.56	0.64
1687.92	0.92
1688.27	0.72
1688.62	1.24
1688.98	1.44
1689.33	1.16
1689.68	0.88
1690.03	0.72
1690.39	0.32
1690.74	0.52
1691.09	0.56
1691.45	0.16
1691.8	0.08
1692.15	0.24
1692.5	0.04
1692.86	0.44
1693.21	1.12
1693.56	1.2
1693.92	1
1694.27	0.72
1694.62	0.4
1694.97	0.28
1695.33	0.08
1695.68	4.2189e-17
1696.03	0.28
1696.38	0.16
1696.74	0.12
1697.09	-6.66107e-18
1697.44	0.08
1697.79	0.16
1698.15	0.16
1698.5	0.32
1698.85	0.56
1699.2	-0.04
1699.56	-7.66057e-17
1699.91	0.12
1700.26	-0.04
1700.61	-0.12
1700.97	0.56
1701.32	0.64
1701.67	0.68
1702.02	0.56
1702.37	0.68
1702.73	0.52
1703.08	0.32
1703.43	0.28
1703.78	0.28
1704.13	0.16
1704.49	0.16
1704.84	0.16
1705.19	0.12
1705.54	0.12
1705.89	0.92
1706.25	1.56
1706.6	1.72
1706.95	2.08
1707.3	2.2
1707.65	1.36
1708.01	0.8
1708.36	0.88
1708.71	0.56
1709.06	0.8
1709.41	1.04
1709.76	1.04
1710.12	1
1710.47	1.08
1710.82	1.4
1711.17	1.4
1711.52	1.36
1711.87	1.72
1712.23	1.64
1712.58	0.96
1712.93	0.72
1713.28	0.92
1713.63	0.4
1713.98	0.76
1714.33	0.88
1714.69	1.08
1715.04	0.92
1715.39	1.32
1715.74	1.44
1716.09	1.44
1716.44	1.48
1716.79	1.48
1717.14	1.04
1717.5	0.44
1717.85	0.6
1718.2	0.52
1718.55	0.44
1718.9	0.44
1719.25	0.44
1719.6	0.28
1719.95	0.28
1720.3	0.32
1720.65	0.52
1721.01	0.8
1721.36	0.8
1721.71	0.76
1722.06	0.44
1722.41	0.04
1722.76	-1.44334e-17
1723.11	0.16
1723.46	0.08
1723.81	0.36
1724.16	0.56
1724.51	0.32
1724.86	0.08
1725.21	0.04
1725.56	0.08
1725.92	0.2
1726.27	0.2
1726.62	0.76
1726.97	1.08
1727.32	1.28
1727.67	1.16
1728.02	1.36
1728.37	0.76
1728.72	0.52
1729.07	0.28
1729.42	0.32
1729.77	0.16
1730.12	0.24
1730.47	0.16
1730.82	0.36
1731.17	0.52
1731.52	0.68
1731.87	0.76
1732.22	0.76
1732.57	0.56
1732.92	0.56
1733.27	0.68
1733.62	0.76
1733.97	0.96
1734.32	1.36
1734.67	1.48
1735.02	0.84
1735.37	0.72
1735.72	0.52
1736.07	0.12
1736.42	-0.2
1736.77	0.24
1737.12	0.12
1737.47	0.12
1737.82	0.4
1738.17	0.44
1738.52	0.72
1738.87	1.16
1739.22	1.72
1739.57	1.48
1739.92	1.64
1740.27	1.6
1740.62	1.24
1740.97	0.8
1741.32	1.08
1741.67	1.16
1742.02	1.12
1742.37	1.04
1742.72	0.92
1743.06	0.64
1743.41	0.44
1743.76	0.36
1744.11	-0.28
1744.46	-0.28
1744.81	-0.16
1745.16	-0.08
1745.51	-0.32
1745.86	0.32
1746.21	0.44
1746.56	0.28
1746.91	0.12
1747.26	0.52
1747.6	0.76
1747.95	0.64
1748.3	0.96
1748.65	0.96
1749	0.64
1749.35	0.4
1749.7	0.72
1750.05	0.52
1750.4	0.52
1750.75	0.76
1751.09	0.96
1751.44	0.64
1751.79	0.08
1752.14	0.08
1752.49	-4.2189e-17
1752.84	-0.16
1753.19	-0.16
1753.54	1
1753.88	1.04
1754.23	1
1754.58	1.16
1754.93	1.24
1755.28	0.6
1755.63	0.68
1755.98	0.48
1756.32	0.48
1756.67	0.4
1757.02	0.48
1757.37	1.12
1757.72	1.16
1758.07	1.64
1758.42	1.64
1758.76	1.68
1759.11	0.6
1759.46	0.6
1759.81	-6.66107e-18
1760.16	0.44
1760.5	0.24
1760.85	0.36
1761.2	0.64
1761.55	0.88
1761.9	0.6
1762.25	0.92
1762.59	1.28
1762.94	0.96
1763.29	1.64
1763.64	2.12
1763.99	2.24
1764.33	2.12
1764.68	2.32
1765.03	1.36
1765.38	0.76
1765.73	0.8
1766.07	0.76
1766.42	1.56
1766.77	1.6
1767.12	1.72
1767.46	1.28
1767.81	1.32
1768.16	0.64
1768.51	0.64
1768.85	0.72
1769.2	0.8
1769.55	0.76
1769.9	0.68
1770.25	0.84
1770.59	1.24
1770.94	1.4
1771.29	1.52
1771.64	1.36
1771.98	1.52
1772.33	1.64
1772.68	1.4
1773.02	1.64
1773.37	1.68
1773.72	1.84
1774.07	1.4
1774.41	1.52
1774.76	1.2
1775.11	1.36
1775.46	1.16
1775.8	0.96
1776.15	0.84
1776.5	0.8
1776.84	0.68
1777.19	0.8
1777.54	0.92
1777.89	1.4
1778.23	1.44
1778.58	1.48
1778.93	1.52
1779.27	1.56
1779.62	1.12
1779.97	1.08
1780.31	1.44
1780.66	1.6
1781.01	1.48
1781.35	1.56
1781.7	1.64
1782.05	1.2
1782.39	0.88
1782.74	0.72
1783.09	0.8
1783.43	0.88
1783.78	1.08
1784.13	0.84
1784.47	0.28
1784.82	0.4
1785.17	0.48
1785.51	0.32
1785.86	0.64
1786.21	1.4
1786.55	1.04
1786.9	1.08
1787.25	1.08
1787.59	0.72
1787.94	1
1788.29	1.04
1788.63	1.04
1788.98	1
1789.32	1
1789.67	0.8
1790.02	0.76
1790.36	0.72
1790.71	0.92
1791.06	1
1791.4	0.88
1791.75	1.24
1792.09	1
1792.44	0.32
1792.79	-1.32
1793.13	-1.36
1793.48	-1.68
1793.82	-1.68
1794.17	-3.52
1794.52	-1.84
1794.86	-1.96
1795.21	-1.64
1795.55	-1.16
1795.9	0.76
1796.24	0.96
1796.59	1.28
1796.94	0.92
1797.28	0.52
1797.63	1
1797.97	0.6
1798.32	0.8
1798.66	1.08
1799.01	1.16
1799.36	1
1799.7	1
1800.05	0.6
1800.39	0.32
1800.74	0.4
1801.08	0.36
1801.43	0.6
1801.77	0.6
1802.12	1.08
1802.46	1.44
1802.81	1.88
1803.15	1.72
1803.5	1.6
1803.85	1.24
1804.19	0.68
1804.54	0.36
1804.88	0.28
1805.23	0.6
1805.57	0.48
1805.92	0.68
1806.26	0.76
1806.61	1.08
1806.95	0.88
1807.3	1.28
1807.64	1.32
1807.99	1.28
1808.33	1.2
1808.68	1.52
1809.02	1.28
1809.37	1.44
1809.71	1.28
1810.06	1.2
1810.4	0.76
1810.75	0.64
1811.09	0.28
1811.43	0.28
1811.78	0.32
1812.12	-0.24
1812.47	0.76
1812.81	0.92
1813.16	1.08
1813.5	1.08
1813.85	2.08
1814.19	1.4
1814.54	1.24
1814.88	1.52
1815.23	2.16
1815.57	2.32
1815.91	1.96
1816.26	1.88
1816.6	1.84
1816.95	1.72
1817.29	1.4
1817.64	1.44
1817.98	1.24
1818.32	1.76
1818.67	1.28
1819.01	1.12
1819.36	1.52
1819.7	2.48
1820.05	1.96
1820.39	2.2
1820.73	3.36
1821.08	3.24
1821.42	3.44
1821.77	3.72
1822.11	3.36
1822.45	2.24
1822.8	2.24
1823.14	1.4
1823.49	0.84
1823.83	1.44
1824.17	1.64
1824.52	2.4
1824.86	3.24
1825.2	3.28
1825.55	2.84
1825.89	3
1826.24	2.16
1826.58	1.88
1826.92	1.88
1827.27	2.24
1827.61	2.56
1827.95	3.4
1828.3	3.36
1828.64	3.92
1828.98	3.68
1829.33	3.12
1829.67	2.44
1830.02	2.04
1830.36	1.6
1830.7	1.36
1831.05	1.92
1831.39	2.6
1831.73	3.44
1832.08	3.72
1832.42	4
1832.76	3.84
1833.1	2.84
1833.45	1.92
1833.79	1.96
1834.13	1.76
1834.48	1.2
1834.82	1.64
1835.16	1.8
1835.51	1.44
1835.85	2.04
1836.19	2.52
1836.54	2.16
1836.88	1.88
1837.22	2.24
1837.56	1.8
1837.91	0.52
1838.25	0.88
1838.59	0.96
1838.94	1.28
1839.28	1.52
1839.62	3.04
1839.96	2.8
1840.31	2.88
1840.65	2.28
1840.99	1.8
1841.34	1.24
1841.68	1.44
1842.02	2.24
1842.36	2.08
1842.71	2.28
1843.05	2
1843.39	1.96
1843.73	2.56
1844.08	2.96
1844.42	2.88
1844.76	3.8
1845.1	4.28
1845.45	2.84
1845.79	3
1846.13	3.96
1846.47	4.08
1846.81	3.6
1847.16	3.56
1847.5	3.2
1847.84	2.84
1848.18	3.16
1848.53	3.88
1848.87	4.84
1849.21	5.8
1849.55	4.88
1849.89	4.2
1850.24	4
1850.58	3.52
1850.92	2.88
1851.26	4.48
1851.6	4.76
1851.95	4.96
1852.29	5.08
1852.63	5.32
1852.97	4.68
1853.31	4.24
1853.66	3.96
1854	3.68
1854.34	3.28
1854.68	3.12
1855.02	2.76
1855.36	3.32
1855.71	4.28
1856.05	4.72
1856.39	5.16
1856.73	5.44
1857.07	4.92
1857.41	4.4
1857.76	4.36
1858.1	4.24
1858.44	3.84
1858.78	3.72
1859.12	3.16
1859.46	3.6
1859.8	3.44
1860.15	4.08
1860.49	4.2
1860.83	5.04
1861.17	4.88
1861.51	5.12
1861.85	4.64
1862.19	4.84
1862.53	4.36
1862.88	3.76
1863.22	2.92
1863.56	3
1863.9	2.4
1864.24	2.16
1864.58	1.8
1864.92	2.36
1865.26	2.52
1865.6	2.4
1865.94	2.96
1866.29	3.64
1866.63	3.48
1866.97	3.76
1867.31	3.88
1867.65	3.04
1867.99	2.8
1868.33	2.8
1868.67	2.72
1869.01	2.36
1869.35	1.96
1869.69	1.88
1870.03	1.92
1870.37	2.04
1870.72	2.04
1871.06	3.04
1871.4	2.8
1871.74	2.56
1872.08	1.92
1872.42	1.96
1872.76	1.52
1873.1	1.6
1873.44	1.56
1873.78	1
1874.12	0.84
1874.46	0.96
1874.8	1.6
1875.14	1.2
1875.48	2.28
1875.82	2.88
1876.16	2.44
1876.5	2.12
1876.84	2.64
1877.18	2.4
1877.52	1.8
1877.86	2.4
1878.2	1.92
1878.54	1.2
1878.88	1.56
1879.22	1.6
1879.56	1.36
1879.9	1
1880.24	1.12
1880.58	0.2
1880.92	0.52
1881.26	0.68
1881.6	1.52
1881.94	1.6
1882.28	2.36
1882.62	2.48
1882.96	2.16
1883.3	1.44
1883.64	1.68
1883.98	1.32
1884.32	1.44
1884.66	1.4
1885	1.6
1885.34	1.6
1885.68	1.44
1886.02	1.12
1886.36	1.28
1886.7	1.28
1887.04	1.6
1887.38	1.6
1887.72	1.76
1888.06	1.36
1888.39	1.28
1888.73	0.68
1889.07	0.72
1889.41	0.6
1889.75	0.68
1890.09	0.52
1890.43	1.04
1890.77	1.64
1891.11	2
1891.45	2.2
1891.79	2.32
1892.13	2.08
1892.47	1.68
1892.8	1.08
1893.14	0.88
1893.48	0.56
1893.82	0.56
1894.16	0.32
1894.5	0.36
1894.84	0.52
1895.18	1
1895.52	0.92
1895.86	0.84
1896.19	0.88
1896.53	0.72
1896.87	0.44
1897.21	0.72
1897.55	0.88
1897.89	0.68
1898.23	0.84
1898.57	1.32
1898.9	0.92
1899.24	1.08
1899.58	1.24
1899.92	1.08
1900.26	0.64
1900.6	0.84
1900.94	0.44
1901.27	0.64
1901.61	0.64
1901.95	0.6
1902.29	0.28
1902.63	0.72
1902.97	0.72
1903.3	0.72
1903.64	1.2
1903.98	1.56
1904.32	1.32
1904.66	1
1905	1.08
1905.33	0.88
1905.67	0.64
1906.01	0.52
1906.35	0.48
1906.69	0.4
1907.02	0.12
1907.36	0.16
1907.7	0.44
1908.04	1.08
1908.38	1.28
1908.71	1.6
1909.05	1.56
1909.39	1.56
1909.73	1.08
1910.07	1.12
1910.4	0.8
1910.74	0.96
1911.08	0.68
1911.42	0.88
1911.76	0.64
1912.09	0.44
1912.43	0.16
1912.77	0.16
1913.11	0
1913.44	0.12
1913.78	-0.08
1914.12	-6.66107e-18
1914.46	0.32
1914.79	0.2
1915.13	0.2
1915.47	0.4
1915.81	0.6
1916.14	0.52
1916.48	0.8
1916.82	0.76
1917.16	0.4
1917.49	0.12
1917.83	0.52
1918.17	0.24
1918.5	0.36
1918.84	1.44
1919.18	1.56
1919.52	1
1919.85	1.36
1920.19	1.16
1920.53	0.84
1920.87	0.72
1921.2	0.8
1921.54	0.36
1921.88	0.56
1922.21	0.64
1922.55	0.88
1922.89	0.72
1923.22	0.8
1923.56	0.6
1923.9	0.32
1924.23	0.48
1924.57	0.56
1924.91	0.76
1925.25	0.76
1925.58	1.04
1925.92	0.8
1926.26	1.12
1926.59	0.96
1926.93	1.2
1927.27	1.24
1927.6	1.2
1927.94	0.8
1928.28	0.88
1928.61	0.68
1928.95	0.8
1929.29	0.68
1929.62	1.28
1929.96	1.08
1930.29	1.68
1930.63	1.32
1930.97	1.68
1931.3	1.24
1931.64	1.28
1931.98	0.64
1932.31	-0.16
1932.65	-0.36
1932.99	-0.2
1933.32	0.24
1933.66	0.28
1933.99	1.44
1934.33	1.4
1934.67	1.16
1935	0.8
1935.34	1.12
1935.67	1.32
1936.01	1.44
1936.35	1.36
1936.68	1.4
1937.02	1.48
1937.35	0.92
1937.69	1.44
1938.03	1.68
1938.36	0.04
1938.7	0.04
1939.03	0.2
1939.37	-0.28
1939.7	-0.12
1940.04	2.12
1940.38	1.8
1940.71	1.72
1941.05	1.68
1941.38	1.4
1941.72	0.64
1942.05	0.52
1942.39	0.6
1942.73	0.4
1943.06	0.68
1943.4	0.8
1943.73	1.28
1944.07	1.12
1944.4	1.56
1944.74	1.28
1945.07	1.68
1945.41	1.36
1945.74	1.32
1946.08	1.2
1946.42	1.28
1946.75	0.96
1947.09	0.88
1947.42	0.92
1947.76	0.92
1948.09	0.96
1948.43	1.44
1948.76	1.76
1949.1	2.16
1949.43	2.04
1949.77	1.8
1950.1	1.44
1950.44	1.24
1950.77	0.8
1951.11	0.6
1951.44	0.6
1951.78	0.28
1952.11	0.2
1952.45	0.44
1952.78	0.56
1953.12	0.56
1953.45	1.4
1953.79	1.48
1954.12	1.2
1954.46	0.84
1954.79	1
1955.12	0.2
1955.46	0.32
1955.79	0.32
1956.13	0.56
1956.46	0.6
1956.8	0.2
1957.13	0.08
1957.47	0.16
1957.8	0.36
1958.14	0.28
1958.47	1.2
1958.8	1.12
1959.14	1.32
1959.47	1.16
1959.81	1.28
1960.14	1.04
1960.48	1.52
1960.81	1.56
1961.14	1.76
1961.48	1.88
1961.81	1.72
1962.15	1.16
1962.48	1.04
1962.82	1
1963.15	0.72
1963.48	1.12
1963.82	1.48
1964.15	1.56
1964.49	1.68
1964.82	1.92
1965.15	1.52
1965.49	1.48
1965.82	1.24
1966.16	1.16
1966.49	0.88
1966.82	0.96
1967.16	1.16
1967.49	1.56
1967.83	1.36
1968.16	1.48
1968.49	1.44
1968.83	1.28
1969.16	1.12
1969.49	1.16
1969.83	1.48
1970.16	1.48
1970.49	1.64
1970.83	1.36
1971.16	1.8
1971.5	1.32
1971.83	1.36
1972.16	1.12
1972.5	1.12
1972.83	0.84
1973.16	0.96
1973.5	0.8
1973.83	0.68
1974.16	0.72
1974.5	0.32
1974.83	0.52
1975.16	0.6
1975.5	0.44
1975.83	0.88
1976.16	1.04
1976.49	0.92
1976.83	0.92
1977.16	1
1977.49	0.88
1977.83	1.12
1978.16	0.96
1978.49	0.88
1978.83	1
1979.16	0.76
1979.49	1.08
1979.83	1.28
1980.16	1.24
1980.49	1.52
1980.82	1.52
1981.16	0.92
1981.49	0.76
1981.82	0.52
1982.15	0
1982.49	0.24
1982.82	0.44
1983.15	0.8
1983.49	1.04
1983.82	1.2
1984.15	1
1984.48	0.96
1984.82	0.52
1985.15	0.48
1985.48	0.32
1985.81	0.24
1986.15	0.48
1986.48	0.96
1986.81	1
1987.14	1
1987.48	1.6
1987.81	1.52
1988.14	1.44
1988.47	1.52
1988.81	1.88
1989.14	1.2
1989.47	0.96
1989.8	0.56
1990.13	0.84
1990.47	0.48
1990.8	0.6
1991.13	0.52
1991.46	0.68
1991.79	-0.24
1992.13	-0.88
1992.46	-0.96
1992.79	-0.88
1993.12	-0.84
1993.45	-0.88
1993.79	0.24
1994.12	0.4
1994.45	0.48
1994.78	0.28
1995.11	0.84
1995.45	0.6
1995.78	0.4
1996.11	0.28
1996.44	0.28
1996.77	0.28
1997.1	0.04
1997.44	0.2
1997.77	0.2
1998.1	0.28
1998.43	0.6
1998.76	0.64
1999.09	0.68
1999.43	-0.36
1999.76	-0.2
2000.09	-0.28
2000.42	-0.32
2000.75	-1.64
2001.08	-0.52
2001.41	-0.4
2001.75	-0.2
2002.08	1.66533e-16
2002.41	1.24
2002.74	1.12
2003.07	0.76
2003.4	0.52
2003.73	0.32
2004.06	0.48
2004.4	0.92
2004.73	0.92
2005.06	0.96
2005.39	1.28
2005.72	0.8
2006.05	0.88
2006.38	0.88
2006.71	1.12
2007.04	1.04
2007.37	1.48
2007.71	1.08
2008.04	1.08
2008.37	0.6
2008.7	0.4
2009.03	0.52
2009.36	0.84
2009.69	0.96
2010.02	0.96
2010.35	1
2010.68	0.96
2011.01	0.88
2011.34	0.8
2011.67	0.84
2012.01	0.76
2012.34	1.16
2012.67	0.88
2013	1.2
2013.33	1.28
2013.66	1.84
2013.99	1.12
2014.32	1.68
2014.65	1.64
2014.98	1.76
2015.31	1.32
2015.64	1.36
2015.97	1.64
2016.3	1.4
2016.63	1.48
2016.96	1.52
2017.29	1.28
2017.62	0.76
2017.95	1.4
2018.28	1.24
2018.61	1.12
2018.94	1.32
2019.27	1.16
2019.6	0.56
2019.93	0.76
2020.26	0.8
2020.59	1
2020.92	0.84
2021.25	0.72
2021.58	0.52
2021.91	0.56
2022.24	0.76
2022.57	0.76
2022.9	0.76
2023.23	0.8
2023.56	0.8
2023.89	0.84
2024.22	1.8
2024.55	2.08
2024.88	1.88
2025.21	1.96
2025.54	1.32
2025.87	0.52
2026.2	0.48
2026.53	0.56
2026.86	0.36
2027.19	0.72
2027.52	0.68
2027.85	0.44
2028.18	0.68
2028.51	0.68
2028.84	0.76
2029.16	1
2029.49	1.36
2029.82	1.48
2030.15	2.04
2030.48	1.36
2030.81	1.04
2031.14	0.88
2031.47	0.48
2031.8	0.12
2032.13	0.88
2032.46	1.04
2032.79	0.84
2033.12	0.84
2033.44	0.64
2033.77	0.32
2034.1	0.16
2034.43	0.2
2034.76	0.24
2035.09	0.44
2035.42	0.84
2035.75	0.84
2036.08	0.8
2036.41	0.76
2036.73	0.68
2037.06	0.52
2037.39	0.44
2037.72	0.52
2038.05	0.48
2038.38	0.56
2038.71	0.32
2039.04	-0.48
2039.36	-0.2
2039.69	-0.2
2040.02	-0.44
2040.35	-0.2
2040.68	0.56
2041.01	0.28
2041.34	0.08
2041.66	0.32
2041.99	0.08
2042.32	0.08
2042.65	0
2042.98	0.2
2043.31	0
2043.63	0.12
2043.96	0.12
2044.29	0.12
2044.62	0.24
2044.95	0.52
2045.28	1.12
2045.6	1.76
2045.93	1.76
2046.26	1.8
2046.59	1.52
2046.92	0.8
2047.24	0.8
2047.57	0.8
2047.9	0.8
2048.23	0.88
2048.56	1.4
2048.88	1.2
2049.21	1.32
2049.54	1.52
2049.87	1.44
2050.2	1.52
2050.52	1.08
2050.85	1.2
2051.18	1.04
2051.51	1.2
2051.83	0.6
2052.16	0.68
2052.49	0.6
2052.82	0.6
2053.15	0.28
2053.47	0.28
2053.8	0.4
2054.13	0.28
2054.46	0.28
2054.78	0.48
2055.11	0.72
2055.44	0.32
2055.77	0.6
2056.09	0.6
2056.42	0.64
2056.75	0.44
2057.08	0.64
2057.4	0.64
2057.73	0.6
2058.06	1.16
2058.38	1.44
2058.71	1.72
2059.04	1.64
2059.37	1.48
2059.69	0.84
2060.02	1.04
2060.35	1.72
2060.67	1.68
2061	1.68
2061.33	1.56
2061.66	1.04
2061.98	0.2
2062.31	0.12
2062.64	0.28
2062.96	0.4
2063.29	0.44
2063.62	0.32
2063.94	0.4
2064.27	0.44
2064.6	-0.24
2064.92	-0.28
2065.25	-0.08
2065.58	-0.16
2065.91	-0.36
2066.23	0.32
2066.56	0.56
2066.89	0.36
2067.21	0.24
2067.54	0.36
2067.87	0.36
2068.19	0.2
2068.52	0.2
2068.84	0.2
2069.17	0.08
2069.5	0.16
2069.82	-0.12
2070.15	-0.12
2070.48	-0.12
2070.8	-0.12
2071.13	-0.2
2071.46	0.28
2071.78	0.28
2072.11	0.36
2072.43	0.36
2072.76	0.72
2073.09	0.72
2073.41	0.84
2073.74	1
2074.07	1.04
2074.39	0.68
2074.72	0.44
2075.04	0.32
2075.37	0.08
2075.7	0.64
2076.02	0.64
2076.35	0.6
2076.67	0.96
2077	0.96
2077.33	0.4
2077.65	0.6
2077.98	0.92
2078.3	0.88
2078.63	0.96
2078.95	1
2079.28	0.84
2079.61	-0.08
2079.93	-0.32
2080.26	5.55112e-17
2080.58	-0.08
2080.91	0.4
2081.23	1.68
2081.56	1.68
2081.89	1.84
2082.21	2.08
2082.54	1.68
2082.86	1
2083.19	0.92
2083.51	0.52
2083.84	0.56
2084.16	0.68
2084.49	1.04
2084.81	1.24
2085.14	1.32
2085.46	1.36
2085.79	1.16
2086.12	0.8
2086.44	0.6
2086.77	0.56
2087.09	0.84
2087.42	0.88
2087.74	1.12
2088.07	1.12
2088.39	0.92
2088.72	0.64
2089.04	0.56
2089.37	0.64
2089.69	0.92
2090.02	0.92
2090.34	0.28
2090.67	0.44
2090.99	-2
2091.32	-1.76
2091.64	-1.64
2091.97	-0.96
2092.29	-0.96
2092.62	1.2
2092.94	1.12
2093.26	1
2093.59	0.8
2093.91	-0.12
2094.24	0.08
2094.56	-0.36
2094.89	-0.36
2095.21	-0.44
2095.54	0.4
2095.86	0.24
2096.19	0.4
2096.51	0.76
2096.84	1.08
2097.16	1.12
2097.48	1.04
2097.81	0.92
2098.13	0.96
2098.46	0.16
2098.78	0.04
2099.11	0.36
2099.43	0.32
2099.75	0.04
2100.08	0.64
2100.4	0.64
2100.73	0.68
2101.05	0.8
2101.38	0.92
2101.7	1.04
2102.02	1.2
2102.35	0.84
2102.67	0.8
2103	0.84
2103.32	0.6
2103.64	0.6
2103.97	1.12
2104.29	1.16
2104.62	1
2104.94	1.04
2105.26	0.28
2105.59	-0.12
2105.91	0.16
2106.23	0.16
2106.56	0.2
2106.88	0.8
2107.21	0.8
2107.53	0.48
2107.85	0.4
2108.18	0.44
2108.5	0.6
2108.82	1.24
2109.15	2.08
2109.47	2.04
2109.79	1.96
2110.12	1.8
2110.44	1.04
2110.76	0.12
2111.09	0.12
2111.41	0.2
2111.73	0.32
2112.06	0.72
2112.38	1.24
2112.7	0.64
2113.03	0.96
2113.35	1
2113.67	0.84
2114	0.32
2114.32	0.96
2114.64	0.44
2114.97	0.48
2115.29	0.36
2115.61	0.88
2115.94	0.84
2116.26	0.84
2116.58	0.64
2116.91	-0.24
2117.23	-0.76
2117.55	-0.2
2117.87	-0.2
2118.2	-0.12
2118.52	0.8
2118.84	0.96
2119.17	0.52
2119.49	0.52
2119.81	0.56
2120.13	0.64
2120.46	0.48
2120.78	-0.4
2121.1	-0.32
2121.42	-0.4
2121.75	-0.64
2122.07	-0.4
2122.39	0.44
2122.72	0.68
2123.04	0.72
2123.36	0.92
2123.68	1
2124.01	1.08
2124.33	1.04
2124.65	1.8
2124.97	1.6
2125.29	1.28
2125.62	1.12
2125.94	0.84
2126.26	0.08
2126.58	0.08
2126.91	-0.64
2127.23	-0.64
2127.55	-0.64
2127.87	-0.24
2128.2	-0.24
2128.52	0.88
2128.84	1.2
2129.16	1.2
2129.48	0.88
2129.81	0.88
2130.13	0.64
2130.45	0.64
2130.77	0.72
2131.09	0.68
2131.42	0.68
2131.74	0.72
2132.06	0.4
2132.38	0.56
2132.7	0.44
2133.02	0.56
2133.35	0.4
2133.67	0.48
2133.99	0.36
2134.31	1.33357e-17
2134.63	0.16
2134.96	0.12
2135.28	0.16
2135.6	0.32
2135.92	0.68
2136.24	0.44
2136.56	0.6
2136.88	0.56
2137.21	0.32
2137.53	0.32
2137.85	0.28
2138.17	-0.4
2138.49	-0.36
2138.81	-0.36
2139.13	-0.32
2139.46	-0.04
2139.78	1.12
2140.1	1.16
2140.42	1.12
2140.74	1.08
2141.06	0.8
2141.38	0.16
2141.7	0.04
2142.03	0.6
2142.35	0.84
2142.67	0.84
2142.99	0.88
2143.31	1.32
2143.63	1.04
2143.95	0.8
2144.27	0.8
2144.59	0.92
2144.91	0.44
2145.24	0.52
2145.56	0.76
2145.88	0.88
2146.2	0.72
2146.52	0.72
2146.84	0.52
2147.16	0.4
2147.48	0.8
2147.8	1.08
2148.12	1.08
2148.44	0.92
2148.76	0.8
2149.08	0.4
2149.41	0.32
2149.73	0.32
2150.05	0.4
2150.37	0.4
2150.69	0.32
2151.01	0.12
2151.33	0.24
2151.65	0.2
2151.97	0.28
2152.29	0.24
2152.61	-0.16
2152.93	-0.24
2153.25	-0.08
2153.57	-0.16
2153.89	-0.16
2154.21	0.36
2154.53	0.88
2154.85	0.68
2155.17	0.68
2155.49	0.48
2155.81	0.4
2156.13	-0.12
2156.45	-0.12
2156.77	0.2
2157.09	0.4
2157.41	0.36
2157.73	0.4
2158.05	0.76
2158.37	0.44
2158.69	0.64
2159.01	0.64
2159.33	0.56
2159.65	0.24
2159.97	0.32
2160.29	0.32
2160.61	0.36
2160.93	0.48
2161.25	1.04
2161.57	1.32
2161.89	1.44
2162.21	1.4
2162.53	1.28
2162.85	0.2
2163.17	-0.16
2163.49	-0.32
2163.81	-0.2
2164.13	-0.2
2164.45	-0.08
2164.77	-0.04
2165.08	0.16
2165.4	0.44
2165.72	0.64
2166.04	1.12
2166.36	1.64
2166.68	1.28
2167	0.96
2167.32	0.88
2167.64	1
2167.96	0.84
2168.28	1.08
2168.6	1.2
2168.92	1.2
2169.24	0.96
2169.55	0.56
2169.87	0.48
2170.19	0.56
2170.51	0.44
2170.83	0.56
2171.15	0.68
2171.47	0.56
2171.79	1.16
2172.11	1.36
2172.43	1.32
2172.74	1.52
2173.06	1.68
2173.38	0.96
2173.7	0.88
2174.02	0.8
2174.34	0.48
2174.66	0.48
2174.98	0.32
2175.29	0.48
2175.61	0.88
2175.93	0.88
2176.25	0.88
2176.57	0.88
2176.89	0.6
2177.21	0.4
2177.52	0.4
2177.84	0.44
2178.16	0.52
2178.48	0.52
2178.8	0.32
2179.12	0.32
2179.43	0.72
2179.75	-0.04
2180.07	0.2
2180.39	0.32
2180.71	0.6
2181.03	0.04
2181.34	0.76
2181.66	0.52
2181.98	0.4
2182.3	0.24
2182.62	0.44
2182.93	0.04
2183.25	0.04
2183.57	0.04
2183.89	0.08
2184.21	-0.2
2184.52	0.36
2184.84	0.36
2185.16	0.48
2185.48	0.32
2185.8	0.64
2186.11	0.44
2186.43	0.48
2186.75	0.48
2187.07	0.48
2187.39	-0.4
2187.7	-0.4
2188.02	-0.56
2188.34	-0.52
2188.66	-0.32
2188.97	0.56
2189.29	0.88
2189.61	1
2189.93	0.92
2190.24	0.72
2190.56	0.6
2190.88	0.28
2191.2	0.32
2191.51	0.24
2191.83	0.4
2192.15	0.28
2192.47	0.28
2192.78	1.16
2193.1	1.36
2193.42	1.2
2193.74	1.28
2194.05	1.28
2194.37	0.56
2194.69	0.36
2195	0.16
2195.32	0.28
2195.64	0.32
2195.96	0.16
2196.27	0.16
2196.59	-0.16
2196.91	0.12
2197.22	0.08
2197.54	0.04
2197.86	0.36
2198.18	1.08
2198.49	0.8
2198.81	0.8
2199.13	0.92
2199.44	0.6
2199.76	0.6
2200.08	0.36
2200.39	0.36
2200.71	0.28
2201.03	0.44
2201.34	0.24
2201.66	0.2
2201.98	0.2
2202.29	0.44
2202.61	0.48
2202.93	0.48
2203.24	0.48
2203.56	0.48
2203.88	0.2
2204.19	0
2204.51	0
2204.83	0.28
2205.14	0.28
2205.46	0.64
2205.78	0.64
2206.09	0.64
2206.41	0.16
2206.72	0.32
2207.04	1.05473e-17
2207.36	-0.12
2207.67	-7.21672e-18
2207.99	0.2
2208.31	0.04
2208.62	0.24
2208.94	0.44
2209.25	0.56
2209.57	0.84
2209.89	1
2210.2	0.92
2210.52	0.84
2210.83	0.8
2211.15	0.52
2211.47	0.52
2211.78	0.84
2212.1	0.76
2212.41	0.56
2212.73	0.68
2213.05	0.64
2213.36	0.16
2213.68	0.36
2213.99	0.36
2214.31	0.6
2214.62	0.48
2214.94	0.52
2215.26	0.72
2215.57	0.76
2215.89	0.4
2216.2	0.56
2216.52	1
2216.83	0.76
2217.15	0.88
2217.46	0.88
2217.78	1.08
2218.1	0.4
2218.41	0.32
2218.73	0.16
2219.04	0.16
2219.36	0.04
2219.67	0.24
2219.99	0.52
2220.3	0.92
2220.62	1.28
2220.93	1.68
2221.25	1.76
2221.56	1.64
2221.88	1.44
2222.19	1.12
2222.51	0.6
2222.82	-0.8
2223.14	-0.92
2223.45	-1
2223.77	-1.04
2224.08	-1
2224.4	0.32
2224.71	0.64
2225.03	0.76
2225.34	0.8
2225.66	-0.72
2225.97	-0.6
2226.29	-0.96
2226.6	-0.64
2226.92	-0.2
2227.23	1.44
2227.55	1.56
2227.86	1.68
2228.18	1.96
2228.49	1.56
2228.81	1.36
2229.12	1.4
2229.44	1.44
2229.75	0.6
2230.07	0.92
2230.38	0.84
2230.69	0.92
2231.01	0.96
2231.32	1.2
2231.64	0.88
2231.95	1.16
2232.27	0.84
2232.58	0.72
2232.9	0.48
2233.21	0.88
2233.52	0.88
2233.84	0.84
2234.15	0.8
2234.47	0.96
2234.78	1.2
2235.1	0.92
2235.41	0.92
2235.72	1
2236.04	0.88
2236.35	0.16
2236.67	-0.24
2236.98	-0.24
2237.29	-0.36
2237.61	-0.28
2237.92	-0.28
2238.24	0.12
2238.55	0.44
2238.86	0.44
2239.18	0.32
2239.49	-0.48
2239.8	-0.48
2240.12	-0.56
2240.43	-0.4
2240.75	0.12
2241.06	1.04
2241.37	1.32
2241.69	1.2
2242	1.04
2242.31	0.68
2242.63	0.56
2242.94	0.4
2243.26	-0.32
2243.57	-0.16
2243.88	-0.32
2244.2	0.04
2244.51	-0.04
2244.82	0.64
2245.14	0.72
2245.45	0.84
2245.76	0.48
2246.08	0.48
2246.39	0.6
2246.7	0.36
2247.02	0.28
2247.33	0.4
2247.64	1.08
2247.96	0.88
2248.27	0.96
2248.58	0.04
2248.9	-0.08
2249.21	-0.8
2249.52	-0.52
2249.83	-0.6
2250.15	0.28
2250.46	0.36
2250.77	0.52
2251.09	0.32
2251.4	0.44
2251.71	0.76
2252.03	0.8
2252.34	0.64
2252.65	0.56
2252.96	0.88
2253.28	1
2253.59	0.88
2253.9	1.04
2254.21	1.52
2254.53	1.08
2254.84	0.48
2255.15	0.56
2255.47	0.48
2255.78	0.08
2256.09	0.08
2256.4	0.32
2256.72	0.24
2257.03	0.4
2257.34	0.32
2257.65	0.32
2257.97	0.24
2258.28	0.32
2258.59	0.16
2258.9	0.36
2259.22	0.88
2259.53	0.96
2259.84	0.92
2260.15	0.84
2260.46	0.8
2260.78	0.6
2261.09	0.64
2261.4	0.72
2261.71	0.84
2262.03	1
2262.34	0.72
2262.65	1.16
2262.96	1.04
2263.27	1.12
2263.59	1.24
2263.9	1.24
2264.21	0.72
2264.52	0.92
2264.83	0.72
2265.15	0.28
2265.46	0.24
2265.77	0.32
2266.08	0.2
2266.39	0.44
2266.7	0.8
2267.02	0.8
2267.33	0.28
2267.64	0.32
2267.95	0.12
2268.26	-0.2
2268.57	-0.12
2268.89	0.64
2269.2	0.52
2269.51	0.48
2269.82	0.68
2270.13	0.84
2270.44	0.72
2270.76	0.32
2271.07	0.44
2271.38	-0.28
2271.69	-0.48
2272	-0.72
2272.31	-0.44
2272.62	-0.56
2272.93	0.04
2273.25	0.56
2273.56	0.6
2273.87	0.84
2274.18	1
2274.49	1.12
2274.8	0.76
2275.11	0.72
2275.42	0.6
2275.74	0.76
2276.05	0.8
2276.36	0.68
2276.67	0.8
2276.98	0.8
2277.29	0.76
2277.6	0.48
2277.91	0.56
2278.22	0.2
2278.53	0.32
2278.85	0.12
2279.16	-0.72
2279.47	-0.56
2279.78	-2.66443e-17
2280.09	0.12
2280.4	0.2
2280.71	1.24
2281.02	0.92
2281.33	0.72
2281.64	0.72
2281.95	1.04
2282.26	1.24
2282.57	1.28
2282.88	1.28
2283.19	1.04
2283.5	0.96
2283.82	0.6
2284.13	0.64
2284.44	0.64
2284.75	0.04
2285.06	-0.12
2285.37	-1.33221e-17
2285.68	-0.08
2285.99	-0.16
2286.3	1.16
2286.61	0.92
2286.92	0.8
2287.23	1
2287.54	1.24
2287.85	0.52
2288.16	0.68
2288.47	0.64
2288.78	0.44
2289.09	0.8
2289.4	1
2289.71	1.12
2290.02	1.24
2290.33	1.64
2290.64	1
2290.95	0.84
2291.26	0.88
2291.57	0.84
2291.88	0.08
2292.19	0.12
2292.5	0.08
2292.81	-0.24
2293.12	-0.32
2293.43	0.04
2293.74	0
2294.05	0
2294.36	0
2294.67	0
2294.98	0
2295.29	0
2295.6	0
2295.91	0
2296.21	0
2296.52	0
2296.83	0
2297.14	0
2297.45	0
2297.76	0
2298.07	0
2298.38	0
2298.69	0
2299	0
2299.31	0
2299.62	0
2299.93	0
2300.24	0
2300.55	0
2300.85	0
2301.16	0
2301.47	0
2301.78	0
2302.09	0
2302.4	0
2302.71	0
2303.02	0
2303.33	0
2303.64	0
2303.94	0
2304.25	0
2304.56	0
2304.87	0
2305.18	0
2305.49	0
2305.8	0
2306.11	0
2306.42	0
2306.72	0
2307.03	0
2307.34	0
2307.65	0
2307.96	0
2308.27	0
2308.58	0
2308.88	0
2309.19	0
2309.5	0
2309.81	0
2310.12	0
2310.43	0
2310.74	0
2311.04	0
2311.35	0
2311.66	0
2311.97	0
2312.28	0
2312.59	0
2312.89	0
2313.2	0
2313.51	0
2313.82	0
2314.13	0
2314.43	0
2314.74	0
2315.05	0
2315.36	0
2315.67	0
2315.97	0
2316.28	0
2316.59	0
2316.9	0
2317.21	0
2317.51	0
2317.82	0
2318.13	0
2318.44	0
2318.75	0
2319.05	0
2319.36	0
2319.67	0
2319.98	0
2320.28	0
2320.59	0
2320.9	0
2321.21	0
2321.51	0
2321.82	0
2322.13	0
2322.44	0
2322.74	0
2323.05	0
2323.36	0
2323.67	0
2323.97	0
2324.28	0
2324.59	0
2324.9	0
2325.2	0
2325.51	0
2325.82	0
2326.13	0
2326.43	0
2326.74	0
2327.05	0
2327.35	0
2327.66	0
2327.97	0
2328.27	0
2328.58	0
2328.89	0
2329.2	0
2329.5	0
2329.81	0
2330.12	0
2330.42	0
2330.73	0
2331.04	0
2331.34	0
2331.65	0
2331.96	0
2332.26	0
2332.57	0
2332.88	0
2333.18	0
2333.49	0
2333.8	0
2334.1	0
2334.41	0
2334.72	0
2335.02	0
2335.33	0
2335.64	0
2335.94	0
2336.25	0
2336.56	0
2336.86	0
2337.17	0
2337.48	0
2337.78	0
2338.09	0
2338.39	0
2338.7	0
2339.01	0
2339.31	0
2339.62	0
2339.93	0
2340.23	0
2340.54	0
2340.84	0
2341.15	0
2341.46	0
2341.76	0
2342.07	0
2342.37	0
2342.68	0
2342.99	0
2343.29	0
2343.6	0
2343.9	0
2344.21	0
2344.51	0
2344.82	0
2345.13	0
2345.43	0
2345.74	0
2346.04	0
2346.35	0
2346.65	0
2346.96	0
2347.27	0
2347.57	0
2347.88	0
2348.18	0
2348.49	0
2348.79	0
2349.1	0
2349.4	0
2349.71	0
2350.01	0
2350.32	0
2350.63	0
2350.93	0
2351.24	0
2351.54	0
2351.85	0
2352.15	0
2352.46	0
2352.76	0
2353.07	0
2353.37	0
2353.68	0
2353.98	0
2354.29	0
2354.59	0
2354.9	0
2355.2	0
2355.51	0
2355.81	0
2356.12	0
2356.42	0
2356.73	0
2357.03	0
2357.34	0
2357.64	0
2357.95	0
2358.25	0
2358.55	0
2358.86	0
2359.16	0
2359.47	0
2359.77	0
2360.08	0
2360.38	0
2360.69	0
2360.99	0
2361.3	0
2361.6	0
2361.9	0
2362.21	0
2362.51	0
2362.82	0
2363.12	0
2363.43	0
2363.73	0
2364.04	0
2364.34	0
2364.64	0
2364.95	0
2365.25	0
2365.56	0
2365.86	0
2366.16	0
2366.47	0
2366.77	0
2367.08	0
2367.38	0
2367.68	0
2367.99	0
2368.29	0
2368.6	0
2368.9	0
2369.2	0
2369.51	0
2369.81	0
2370.12	0
2370.42	0
2370.72	0
2371.03	0
2371.33	0
2371.63	0
2371.94	0
2372.24	0
2372.55	0
2372.85	0
2373.15	0
2373.46	0
2373.76	0
2374.06	0
2374.37	0
2374.67	0
2374.97	0
2375.28	0
2375.58	0
2375.88	0
2376.19	0
2376.49	0
2376.79	0
2377.1	0
2377.4	0
2377.7	0
2378.01	0
2378.31	0
2378.61	0
2378.92	0
2379.22	0
2379.52	0
2379.82	0
2380.13	0
2380.43	0
2380.73	0
2381.04	0
2381.34	0
2381.64	0
2381.95	0
2382.25	0
2382.55	0
2382.85	0
2383.16	0
2383.46	0
2383.76	0
2384.06	0
2384.37	0
2384.67	0
2384.97	0
2385.28	0
2385.58	0
2385.88	0
2386.18	0
2386.49	0
2386.79	0
2387.09	0
2387.39	0
2387.69	0
2388	0
2388.3	0
2388.6	0
2388.9	0
2389.21	0
2389.51	0
2389.81	0
2390.11	0
2390.42	0
2390.72	0
2391.02	0
2391.32	0
2391.62	0
2391.93	0
2392.23	0
2392.53	0
2392.83	0
2393.13	0
2393.44	0
2393.74	0
2394.04	0
2394.34	0
2394.64	0
2394.95	0
2395.25	0
2395.55	0
2395.85	0
2396.15	0
2396.45	0
2396.76	0
2397.06	0
2397.36	0
2397.66	0
2397.96	0
2398.26	0
2398.57	0
2398.87	0
2399.17	0
2399.47	0
2399.77	0
2400.07	0
2400.37	0
2400.68	0
2400.98	0
2401.28	0
2401.58	0
2401.88	0
2402.18	0
2402.48	0
2402.79	0
2403.09	0
2403.39	0
2403.69	0
2403.99	0
2404.29	0
2404.59	0
2404.89	0
2405.19	0
2405.5	0
2405.8	0
2406.1	0
2406.4	0
2406.7	0
2407	0
2407.3	0
2407.6	0
2407.9	0
2408.2	0
2408.5	0
2408.8	0
2409.11	0
2409.41	0
2409.71	0
2410.01	0
2410.31	0
2410.61	0
2410.91	0
2411.21	0
2411.51	0
2411.81	0
2412.11	0
2412.41	0
2412.71	0
2413.01	0
2413.31	0
2413.61	0
2413.91	0
2414.21	0
2414.51	0
2414.81	0
2415.12	0
2415.42	0
2415.72	0
2416.02	0
2416.32	0
2416.62	0
2416.92	0
2417.22	0
2417.52	0
2417.82	0
2418.12	0
2418.42	0
2418.72	0
2419.02	0
2419.32	0
2419.62	0
2419.92	0
2420.22	0
2420.52	0
2420.82	0
2421.12	0
2421.42	0
2421.71	0
2422.01	0
2422.31	0
2422.61	0
2422.91	0
2423.21	0
2423.51	0
2423.81	0
2424.11	0
2424.41	0
2424.71	0
2425.01	0
2425.31	0
2425.61	0
2425.91	0
2426.21	0
2426.51	0
2426.81	0
2427.11	0
2427.41	0
2427.7	0
2428	0
2428.3	0
2428.6	0
2428.9	0
2429.2	0
2429.5	0
2429.8	0
2430.1	0
2430.4	0
2430.7	0
2430.99	0
2431.29	0
2431.59	0
2431.89	0
2432.19	0
2432.49	0
2432.79	0
2433.09	0
2433.39	0
2433.68	0
2433.98	0
2434.28	0
2434.58	0
2434.88	0
2435.18	0
2435.48	0
2435.78	0
2436.07	0
2436.37	0
2436.67	0
2436.97	0
2437.27	0
2437.57	0
2437.86	0
2438.16	0
2438.46	0
2438.76	0
2439.06	0
2439.36	0
2439.66	0
2439.95	0
2440.25	0
2440.55	0
2440.85	0
2441.15	0
2441.44	0
2441.74	0
2442.04	0
2442.34	0
2442.64	0
2442.93	0
2443.23	0
2443.53	0
2443.83	0
2444.13	0
2444.42	0
2444.72	0
2445.02	0
2445.32	0
2445.62	0
2445.91	0
2446.21	0
2446.51	0
2446.81	0
2447.1	0
2447.4	0
2447.7	0
2448	0
2448.3	0
2448.59	0
2448.89	0
2449.19	0
2449.49	0
2449.78	0
2450.08	0
2450.38	0
2450.68	0
2450.97	0
2451.27	0
2451.57	0
2451.87	0
2452.16	0
2452.46	0
2452.76	0
2453.05	0
2453.35	0
2453.65	0
2453.95	0
2454.24	0
2454.54	0
2454.84	0
2455.13	0
2455.43	0
2455.73	0
2456.03	0
2456.32	0
2456.62	0
2456.92	0
2457.21	0
2457.51	0
2457.81	0
2458.1	0
2458.4	0
2458.7	0
2458.99	0
2459.29	0
2459.59	0
2459.88	0
2460.18	0
2460.48	0
2460.77	0
2461.07	0
2461.37	0
2461.66	0
2461.96	0
2462.26	0
2462.55	0
2462.85	0
2463.15	0
2463.44	0
2463.74	0
2464.04	0
2464.33	0
2464.63	0
2464.92	0
2465.22	0
2465.52	0
2465.81	0
2466.11	0
2466.41	0
2466.7	0
2467	0
2467.29	0
2467.59	0
2467.89	0
2468.18	0
2468.48	0
2468.77	0
2469.07	0
2469.37	0
2469.66	0
2469.96	0
2470.25	0
2470.55	0
2470.84	0
2471.14	0
2471.44	0
2471.73	0
2472.03	0
2472.32	0
2472.62	0
2472.91	0
2473.21	0
2473.51	0
2473.8	0
2474.1	0
2474.39	0
2474.69	0
2474.98	0
2475.28	0
2475.57	0
2475.87	0
2476.17	0
2476.46	0
2476.76	0
2477.05	0
2477.35	0
2477.64	0
2477.94	0
2478.23	0
2478.53	0
2478.82	0
2479.12	0
2479.41	0
2479.71	0
2480	0
2480.3	0
2480.59	0
2480.89	0
2481.18	0
2481.48	0
2481.77	0
2482.07	0
2482.36	0
2482.66	0
2482.95	0
2483.25	0
2483.54	0
2483.84	0
2484.13	0
2484.43	0
2484.72	0
2485.02	0
2485.31	0
2485.6	0
2485.9	0
2486.19	0
2486.49	0
2486.78	0
2487.08	0
2487.37	0
2487.67	0
2487.96	0
2488.26	0
2488.55	0
2488.84	0
2489.14	0
2489.43	0
2489.73	0
2490.02	0
2490.32	0
2490.61	0
2490.9	0
2491.2	0
2491.49	0
2491.79	0
2492.08	0
2492.37	0
2492.67	0
2492.96	0
2493.26	0
2493.55	0
2493.84	0
2494.14	0
2494.43	0
2494.73	0
2495.02	0
2495.31	0
2495.61	0
2495.9	0
2496.2	0
2496.49	0
2496.78	0
2497.08	0
2497.37	0
2497.66	0
2497.96	0
2498.25	0
2498.54	0
2498.84	0
2499.13	0
2499.43	0
2499.72	0
2500.01	0
2500.31	0
2500.6	0
2500.89	0
2501.19	0
2501.48	0
2501.77	0
2502.07	0
2502.36	0
2502.65	0
2502.95	0
2503.24	0
2503.53	0
2503.82	0
2504.12	0
2504.41	0
2504.7	0
2505	0
2505.29	0
2505.58	0
2505.88	0
2506.17	0
2506.46	0
2506.76	0
2507.05	0
2507.34	0
2507.63	0
2507.93	0
2508.22	0
2508.51	0
2508.8	0
2509.1	0
2509.39	0
2509.68	0
2509.98	0
2510.27	0
2510.56	0
2510.85	0
2511.15	0
2511.44	0
2511.73	0
2512.02	0
2512.32	0
2512.61	0
2512.9	0
2513.19	0
2513.49	0
2513.78	0
2514.07	0
2514.36	0
2514.65	0
2514.95	0
2515.24	0
2515.53	0
2515.82	0
2516.12	0
2516.41	0
2516.7	0
2516.99	0
2517.28	0
2517.58	0
2517.87	0
2518.16	0
2518.45	0
2518.74	0
2519.04	0
2519.33	0
2519.62	0
2519.91	0
2520.2	0
2520.5	0
2520.79	0
2521.08	0
2521.37	0
2521.66	0
2521.95	0
2522.25	0
2522.54	0
2522.83	0
2523.12	0
2523.41	0
2523.7	0
2523.99	0
2524.29	0
2524.58	0
2524.87	0
2525.16	0
2525.45	0
2525.74	0
2526.03	0
2526.33	0
2526.62	0
2526.91	0
2527.2	0
2527.49	0
2527.78	0
2528.07	0
2528.36	0
2528.66	0
2528.95	0
2529.24	0
2529.53	0
2529.82	0
2530.11	0
2530.4	0
2530.69	0
2530.98	0
2531.27	0
2531.57	0
2531.86	0
2532.15	0
2532.44	0
2532.73	0
2533.02	0
2533.31	0
2533.6	0
2533.89	0
2534.18	0
2534.47	0
2534.76	0
2535.05	0
2535.35	0
2535.64	0
2535.93	0
2536.22	0
2536.51	0
2536.8	0
2537.09	0
2537.38	0
2537.67	0
2537.96	0
2538.25	0
2538.54	0
2538.83	0
2539.12	0
2539.41	0
2539.7	0
2539.99	0
2540.28	0
2540.57	0
2540.86	0
2541.15	0
2541.44	0
2541.73	0
2542.02	0
2542.31	0
2542.6	0
2542.89	0
2543.18	0
2543.47	0
2543.76	0
2544.05	0
2544.34	0
2544.63	0
2544.92	0
2545.21	0
2545.5	0
2545.79	0
2546.08	0
2546.37	0
2546.66	0
2546.95	0
2547.24	0
2547.53	0
2547.82	0
2548.11	0
2548.4	0
2548.69	0
2548.98	0
2549.27	0
2549.55	0
2549.84	0
2550.13	0
2550.42	0
2550.71	0
2551	0
2551.29	0
2551.58	0
2551.87	0
2552.16	0
2552.45	0
2552.74	0
2553.03	0
2553.31	0
2553.6	0
2553.89	0
2554.18	0
2554.47	0
2554.76	0
2555.05	0
2555.34	0
2555.63	0
2555.92	0
2556.2	0
2556.49	0
2556.78	0
2557.07	0
2557.36	0
2557.65	0
2557.94	0
2558.23	0
2558.51	0
2558.8	0
2559.09	0
2559.38	0
2559.67	0
2559.96	0
2560.25	0
2560.53	0
2560.82	0
2561.11	0
2561.4	0
2561.69	0
2561.98	0
2562.27	0
2562.55	0
2562.84	0
2563.13	0
2563.42	0
2563.71	0
2564	0
2564.28	0
2564.57	0
2564.86	0
2565.15	0
2565.44	0
2565.72	0
2566.01	0
2566.3	0
2566.59	0
2566.88	0
2567.16	0
2567.45	0
2567.74	0
2568.03	0
2568.32	0
2568.6	0
2568.89	0
2569.18	0
2569.47	0
2569.75	0

