Source: Spectrum Viewer

Chart: Pulse Spectrum

Series: 
Wavelength (nm)	S (a.u.)
1179.9	0
1180.29	0
1180.68	0
1181.06	0
1181.45	0
1181.83	0
1182.22	0
1182.6	0
1182.99	0
1183.38	0
1183.76	0
1184.15	0
1184.53	0
1184.92	0
1185.3	0
1185.69	0
1186.07	0
1186.46	0
1186.85	0
1187.23	0
1187.62	0
1188	0
1188.39	0
1188.77	0
1189.16	0
1189.54	0
1189.93	0
1190.31	0
1190.7	0
1191.08	0
1191.47	0
1191.85	0
1192.24	0
1192.62	0
1193.01	0
1193.39	0
1193.78	0
1194.16	0
1194.55	0
1194.93	0
1195.32	0
1195.7	0
1196.09	0
1196.47	0
1196.86	0
1197.24	0
1197.63	0
1198.01	0
1198.4	0
1198.78	0
1199.16	0
1199.55	0
1199.93	0
1200.32	0
1200.7	0
1201.09	0
1201.47	0
1201.86	0
1202.24	0
1202.63	0
1203.01	0
1203.39	0
1203.78	0
1204.16	0
1204.55	0
1204.93	0
1205.32	0
1205.7	0
1206.08	0
1206.47	0
1206.85	0
1207.24	0
1207.62	0
1208	0
1208.39	0
1208.77	0
1209.16	0
1209.54	0
1209.92	0
1210.31	0
1210.69	0
1211.08	0
1211.46	0
1211.84	0
1212.23	0
1212.61	0
1213	0
1213.38	0
1213.76	0
1214.15	0
1214.53	0
1214.91	0
1215.3	0
1215.68	0
1216.06	0
1216.45	0
1216.83	0
1217.22	0
1217.6	0
1217.98	0
1218.37	0
1218.75	0
1219.13	0
1219.52	0
1219.9	0
1220.28	0
1220.67	0
1221.05	0
1221.43	0
1221.82	0
1222.2	0
1222.58	0
1222.97	0
1223.35	0
1223.73	0
1224.11	0
1224.5	0
1224.88	0
1225.26	0
1225.65	0
1226.03	0
1226.41	0
1226.8	0
1227.18	0
1227.56	0
1227.94	0
1228.33	0
1228.71	0
1229.09	0
1229.47	0
1229.86	0
1230.24	0
1230.62	0
1231.01	0
1231.39	0
1231.77	0
1232.15	0
1232.54	0
1232.92	0
1233.3	0
1233.68	0
1234.07	0
1234.45	0
1234.83	0
1235.21	0
1235.6	0
1235.98	0
1236.36	0
1236.74	0
1237.12	0
1237.51	0
1237.89	0
1238.27	0
1238.65	0
1239.04	0
1239.42	0
1239.8	0
1240.18	0
1240.56	0
1240.95	0
1241.33	0
1241.71	0
1242.09	0
1242.47	0
1242.86	0
1243.24	0
1243.62	0
1244	0
1244.38	0
1244.77	0
1245.15	0
1245.53	0
1245.91	0
1246.29	0
1246.67	0
1247.06	0
1247.44	0
1247.82	0
1248.2	0
1248.58	0
1248.96	0
1249.34	0
1249.73	0
1250.11	0
1250.49	0
1250.87	0
1251.25	0
1251.63	0
1252.01	0
1252.4	0
1252.78	0
1253.16	0
1253.54	0
1253.92	0
1254.3	0
1254.68	0
1255.06	0
1255.45	0
1255.83	0
1256.21	0
1256.59	0
1256.97	0
1257.35	0
1257.73	0
1258.11	0
1258.49	0
1258.87	0
1259.26	0
1259.64	0
1260.02	0
1260.4	0
1260.78	0
1261.16	0
1261.54	0
1261.92	0
1262.3	0
1262.68	0
1263.06	0
1263.44	0
1263.82	0
1264.21	0
1264.59	0
1264.97	0
1265.35	0
1265.73	0
1266.11	0
1266.49	0
1266.87	0
1267.25	0
1267.63	0
1268.01	0
1268.39	0
1268.77	0
1269.15	0
1269.53	0
1269.91	0
1270.29	0
1270.67	0
1271.05	0
1271.43	0
1271.81	0
1272.19	0
1272.57	0
1272.95	0
1273.33	0
1273.71	0
1274.09	0
1274.47	0
1274.85	0
1275.23	0
1275.61	0
1275.99	0
1276.37	0
1276.75	0
1277.13	0
1277.51	0
1277.89	0
1278.27	0
1278.65	0
1279.03	0
1279.41	0
1279.79	0
1280.17	0
1280.55	0
1280.93	0
1281.31	0
1281.69	0
1282.07	0
1282.45	0
1282.82	0
1283.2	0
1283.58	0
1283.96	0
1284.34	0
1284.72	0
1285.1	0
1285.48	0
1285.86	0
1286.24	0
1286.62	0
1287	0
1287.38	0
1287.75	0
1288.13	0
1288.51	0
1288.89	0
1289.27	0
1289.65	0
1290.03	0
1290.41	0
1290.79	0
1291.17	0
1291.54	0
1291.92	0
1292.3	0
1292.68	0
1293.06	0
1293.44	0
1293.82	0
1294.2	0
1294.57	0
1294.95	0
1295.33	0
1295.71	0
1296.09	0
1296.47	0
1296.85	0
1297.22	0
1297.6	0
1297.98	0
1298.36	0
1298.74	0
1299.12	0
1299.5	0
1299.87	0
1300.25	0
1300.63	0
1301.01	0
1301.39	0
1301.77	0
1302.14	0
1302.52	0
1302.9	0
1303.28	0
1303.66	0
1304.03	0
1304.41	0
1304.79	0
1305.17	0
1305.55	0
1305.92	0
1306.3	0
1306.68	0
1307.06	0
1307.44	0
1307.81	0
1308.19	0
1308.57	0
1308.95	0
1309.32	0
1309.7	0
1310.08	0
1310.46	0
1310.84	0
1311.21	0
1311.59	0
1311.97	0
1312.35	0
1312.72	0
1313.1	0
1313.48	0
1313.86	0
1314.23	0
1314.61	0
1314.99	0
1315.37	0
1315.74	0
1316.12	0
1316.5	0
1316.87	0
1317.25	0
1317.63	0
1318.01	0
1318.38	0
1318.76	0
1319.14	0
1319.52	0
1319.89	0
1320.27	0
1320.65	0
1321.02	0
1321.4	0
1321.78	0
1322.15	0
1322.53	0
1322.91	0
1323.29	0
1323.66	0
1324.04	0
1324.42	0
1324.79	0
1325.17	0
1325.55	0
1325.92	0
1326.3	0
1326.68	0
1327.05	0
1327.43	0
1327.81	0
1328.18	0
1328.56	0
1328.94	0
1329.31	0
1329.69	0
1330.06	0
1330.44	0
1330.82	0
1331.19	0
1331.57	0
1331.95	0
1332.32	0
1332.7	0
1333.08	0
1333.45	0
1333.83	0
1334.2	0
1334.58	0
1334.96	0
1335.33	0
1335.71	0
1336.08	0
1336.46	0
1336.84	0
1337.21	0
1337.59	0
1337.96	0
1338.34	0
1338.72	0
1339.09	0
1339.47	0
1339.84	0
1340.22	0
1340.6	0
1340.97	0
1341.35	0
1341.72	0
1342.1	0
1342.47	0
1342.85	0
1343.23	0
1343.6	0
1343.98	0
1344.35	0
1344.73	0
1345.1	0
1345.48	0
1345.85	0
1346.23	0
1346.61	0
1346.98	0
1347.36	0
1347.73	0
1348.11	0
1348.48	0
1348.86	0
1349.23	0
1349.61	0
1349.98	0
1350.36	0
1350.73	0
1351.11	0
1351.48	0
1351.86	0
1352.23	0
1352.61	0
1352.98	0
1353.36	0
1353.73	0
1354.11	0
1354.48	0
1354.86	0
1355.23	0
1355.61	0
1355.98	0
1356.36	0
1356.73	0
1357.11	0
1357.48	0
1357.86	0
1358.23	0
1358.61	0
1358.98	0
1359.35	0
1359.73	0
1360.1	0
1360.48	0
1360.85	0
1361.23	0
1361.6	0
1361.98	0
1362.35	0
1362.72	0
1363.1	0
1363.47	0
1363.85	0
1364.22	0
1364.6	0
1364.97	0
1365.34	0
1365.72	0
1366.09	0
1366.47	0
1366.84	0
1367.22	0
1367.59	0
1367.96	0
1368.34	0
1368.71	0
1369.09	0
1369.46	-0.4
1369.83	-0.4
1370.21	-0.28
1370.58	-0.24
1370.96	-0.24
1371.33	0.76
1371.7	0.84
1372.08	1.16
1372.45	1.32
1372.82	1.32
1373.2	0.72
1373.57	1.08
1373.95	0.68
1374.32	0.48
1374.69	0.52
1375.07	0.56
1375.44	0.12
1375.81	0.08
1376.19	0.16
1376.56	0.32
1376.93	0.28
1377.31	0.28
1377.68	0.76
1378.05	0.72
1378.43	0.56
1378.8	0.56
1379.17	0.56
1379.55	0.08
1379.92	0.12
1380.29	0.08
1380.67	0.08
1381.04	0.32
1381.41	0.32
1381.79	0.24
1382.16	0.24
1382.53	0.52
1382.91	-0.72
1383.28	-0.72
1383.65	-0.72
1384.03	-0.72
1384.4	-1
1384.77	0.36
1385.14	0.36
1385.52	0.36
1385.89	0.4
1386.26	0.48
1386.64	0.24
1387.01	0.24
1387.38	0.52
1387.75	0.52
1388.13	0.72
1388.5	0.92
1388.87	1.08
1389.25	0.8
1389.62	0.72
1389.99	0.28
1390.36	-0.04
1390.74	-0.2
1391.11	0.08
1391.48	0.12
1391.85	0.6
1392.23	0.84
1392.6	0.84
1392.97	0.56
1393.34	0.72
1393.72	0.44
1394.09	0.2
1394.46	0.24
1394.83	0.24
1395.21	0.08
1395.58	0.12
1395.95	0.28
1396.32	0.28
1396.69	0.52
1397.07	0.52
1397.44	0.44
1397.81	0.44
1398.18	0.4
1398.55	0.16
1398.93	0.24
1399.3	0.56
1399.67	0.6
1400.04	0.68
1400.41	0.92
1400.79	0.84
1401.16	0.56
1401.53	0.44
1401.9	0.4
1402.27	0.36
1402.65	0.44
1403.02	0.4
1403.39	0.92
1403.76	0.52
1404.13	0.4
1404.51	0.32
1404.88	0.36
1405.25	-0.08
1405.62	0.28
1405.99	0.24
1406.36	0.24
1406.74	0.48
1407.11	0.52
1407.48	0.68
1407.85	-0.56
1408.22	-0.52
1408.59	-0.8
1408.96	-1
1409.34	-1
1409.71	0.2
1410.08	0.56
1410.45	0.76
1410.82	0.76
1411.19	0.76
1411.56	0.88
1411.93	0.52
1412.31	0.32
1412.68	0.32
1413.05	0.16
1413.42	0.16
1413.79	0.16
1414.16	-0.04
1414.53	-3.33053e-18
1414.9	-0.2
1415.27	-0.28
1415.65	-0.32
1416.02	0.04
1416.39	0.08
1416.76	0.28
1417.13	0.24
1417.5	0.44
1417.87	0.32
1418.24	0.24
1418.61	0.24
1418.98	0.52
1419.35	0.32
1419.73	0.28
1420.1	0.32
1420.47	0.4
1420.84	0.32
1421.21	0.8
1421.58	0.92
1421.95	0.88
1422.32	1
1422.69	1
1423.06	0.52
1423.43	0.88
1423.8	0.88
1424.17	0.72
1424.54	0.52
1424.91	0.52
1425.28	0.04
1425.65	0.04
1426.02	0
1426.39	0.04
1426.76	-0.52
1427.14	-0.48
1427.51	-0.4
1427.88	-0.32
1428.25	-0.36
1428.62	0.2
1428.99	0.16
1429.36	0.16
1429.73	0.28
1430.1	0.28
1430.47	0.28
1430.84	0.36
1431.21	0.64
1431.58	0.48
1431.95	0.68
1432.32	0.72
1432.69	0.76
1433.06	0.4
1433.43	0.36
1433.8	0.16
1434.17	0.12
1434.54	0
1434.91	0
1435.28	0
1435.64	0.16
1436.01	-0.44
1436.38	-0.44
1436.75	-0.44
1437.12	-0.44
1437.49	-0.24
1437.86	0.52
1438.23	0.52
1438.6	0.52
1438.97	0.68
1439.34	0.36
1439.71	0.48
1440.08	0.56
1440.45	0.8
1440.82	0.04
1441.19	-5.55112e-17
1441.56	-0.24
1441.93	-0.12
1442.3	-0.36
1442.67	-1.32
1443.03	-1.04
1443.4	-0.8
1443.77	-0.72
1444.14	-0.72
1444.51	0.92
1444.88	0.76
1445.25	0.48
1445.62	0.2
1445.99	0.52
1446.36	0.44
1446.73	0.64
1447.09	0.64
1447.46	0.64
1447.83	0.32
1448.2	0.32
1448.57	-0.2
1448.94	0.12
1449.31	0.28
1449.68	0.52
1450.05	0.6
1450.41	0.88
1450.78	0.6
1451.15	0.44
1451.52	0.2
1451.89	0.28
1452.26	0.2
1452.63	0.16
1453	0.24
1453.36	0.24
1453.73	0.08
1454.1	0.2
1454.47	0.32
1454.84	0.32
1455.21	0.32
1455.57	-0.08
1455.94	-0.2
1456.31	-0.32
1456.68	-0.2
1457.05	-0.2
1457.42	0.24
1457.78	0.24
1458.15	0.24
1458.52	0.04
1458.89	0.12
1459.26	0.24
1459.63	0.24
1459.99	0.36
1460.36	0.4
1460.73	0.32
1461.1	0.16
1461.47	0.16
1461.83	0.44
1462.2	0.4
1462.57	0.44
1462.94	0.6
1463.31	0.96
1463.67	0.72
1464.04	0.76
1464.41	0.84
1464.78	0.16
1465.15	-0.12
1465.51	-0.16
1465.88	-0.12
1466.25	-0.08
1466.62	0.56
1466.98	0.56
1467.35	0.8
1467.72	0.72
1468.09	0.56
1468.46	0.52
1468.82	0.52
1469.19	0.24
1469.56	0.6
1469.93	0.88
1470.29	1.36
1470.66	1.28
1471.03	1.4
1471.4	1.28
1471.76	1
1472.13	0.44
1472.5	0.56
1472.86	0.36
1473.23	0.12
1473.6	0.24
1473.97	0.36
1474.33	0.24
1474.7	0.32
1475.07	0.8
1475.44	0.68
1475.8	0.4
1476.17	0.44
1476.54	0.44
1476.9	0.2
1477.27	0.2
1477.64	1.16
1478	1.16
1478.37	1.12
1478.74	1.04
1479.11	1.32
1479.47	0.52
1479.84	0.6
1480.21	0.56
1480.57	0.44
1480.94	0.36
1481.31	0.48
1481.67	0.36
1482.04	0.36
1482.41	0.32
1482.77	0.12
1483.14	0
1483.51	0
1483.87	0
1484.24	0.12
1484.61	0.12
1484.97	0.16
1485.34	0.24
1485.71	-0.68
1486.07	-0.68
1486.44	-0.68
1486.81	-0.68
1487.17	-0.36
1487.54	0.76
1487.9	0.64
1488.27	0.64
1488.64	0.56
1489	0.16
1489.37	-0.04
1489.74	-0.04
1490.1	-0.04
1490.47	0.12
1490.83	0.12
1491.2	0.12
1491.57	0.24
1491.93	0.24
1492.3	0.12
1492.66	0.12
1493.03	0.16
1493.4	0.04
1493.76	0.4
1494.13	0.68
1494.49	0.8
1494.86	0.76
1495.23	1.04
1495.59	0.72
1495.96	-0.68
1496.32	-0.76
1496.69	-0.76
1497.06	-0.96
1497.42	-1.8
1497.79	-0.6
1498.15	-0.64
1498.52	-0.52
1498.88	-0.6
1499.25	0.2
1499.62	-0.28
1499.98	-0.28
1500.35	0.04
1500.71	0.4
1501.08	0.48
1501.44	0.92
1501.81	1.04
1502.17	0.6
1502.54	0.72
1502.9	0.72
1503.27	0.88
1503.64	0.92
1504	1.04
1504.37	0.56
1504.73	0.68
1505.1	0.48
1505.46	0.36
1505.83	0.28
1506.19	0.36
1506.56	0.16
1506.92	0.16
1507.29	0.12
1507.65	0.4
1508.02	0.52
1508.38	0.72
1508.75	0.72
1509.11	0.88
1509.48	0.72
1509.84	0.56
1510.21	0.36
1510.57	0.52
1510.94	0.36
1511.3	0.28
1511.67	0.24
1512.03	0.24
1512.4	0.68
1512.76	0.68
1513.13	-0.24
1513.49	-0.36
1513.85	-0.08
1514.22	-0.4
1514.58	-0.4
1514.95	0.44
1515.31	0.76
1515.68	0.64
1516.04	0.36
1516.41	0.52
1516.77	0.72
1517.14	0.64
1517.5	0.48
1517.86	0.48
1518.23	0.32
1518.59	0.2
1518.96	0.48
1519.32	0.48
1519.69	0.48
1520.05	0.56
1520.41	0.48
1520.78	0.08
1521.14	0.08
1521.51	0.44
1521.87	0.64
1522.24	0.64
1522.6	0.76
1522.96	0.8
1523.33	0.52
1523.69	0.24
1524.06	0.24
1524.42	0.16
1524.78	0.12
1525.15	0.08
1525.51	0.48
1525.88	0.48
1526.24	0.44
1526.6	0.44
1526.97	0.4
1527.33	0.12
1527.69	0.2
1528.06	0.2
1528.42	0.36
1528.79	0.56
1529.15	-0.28
1529.51	-0.36
1529.88	-0.36
1530.24	-0.52
1530.6	-0.56
1530.97	0.16
1531.33	0.16
1531.69	0.2
1532.06	0.28
1532.42	0.28
1532.78	0.56
1533.15	0.72
1533.51	0.8
1533.87	0.72
1534.24	0.56
1534.6	0.28
1534.96	0.12
1535.33	0.16
1535.69	0.36
1536.05	0.36
1536.42	0.36
1536.78	0.36
1537.14	0.48
1537.51	0.48
1537.87	0.48
1538.23	0.48
1538.6	0.6
1538.96	0.32
1539.32	0.12
1539.68	0.12
1540.05	0.48
1540.41	0.44
1540.77	0.64
1541.14	0.88
1541.5	0.92
1541.86	0.56
1542.23	0.8
1542.59	0.6
1542.95	0.6
1543.31	0.68
1543.68	0.68
1544.04	0.36
1544.4	0.48
1544.76	0.48
1545.13	0.36
1545.49	0.36
1545.85	0.68
1546.21	0.56
1546.58	0.32
1546.94	1
1547.3	1.28
1547.66	1.32
1548.03	1.32
1548.39	1.44
1548.75	0.76
1549.11	0.76
1549.48	0.52
1549.84	0.52
1550.2	0.6
1550.56	0.88
1550.93	0.76
1551.29	0.64
1551.65	0.64
1552.01	0.44
1552.37	0.36
1552.74	0.32
1553.1	0.8
1553.46	0.8
1553.82	0.8
1554.18	0.6
1554.55	1
1554.91	0.6
1555.27	1.12
1555.63	1.52
1555.99	1.56
1556.36	1.04
1556.72	-0.64
1557.08	-1.04
1557.44	-1.24
1557.8	-0.84
1558.17	-0.8
1558.53	1
1558.89	0.96
1559.25	0.76
1559.61	0.36
1559.97	0.64
1560.34	0.44
1560.7	0.48
1561.06	0.6
1561.42	0.56
1561.78	0.36
1562.14	0.16
1562.5	0.08
1562.87	0.2
1563.23	0.32
1563.59	-0.2
1563.95	0.12
1564.31	0.08
1564.67	0.2
1565.03	0.12
1565.4	0.56
1565.76	0.52
1566.12	0.56
1566.48	0.2
1566.84	0.52
1567.2	0.48
1567.56	0.36
1567.92	0.32
1568.29	0.32
1568.65	-0.04
1569.01	0.04
1569.37	-0.2
1569.73	-0.2
1570.09	-0.04
1570.45	0.12
1570.81	0.08
1571.17	0.36
1571.53	0.48
1571.89	0.8
1572.26	0.68
1572.62	0.76
1572.98	0.8
1573.34	0.68
1573.7	0.2
1574.06	0.16
1574.42	0.08
1574.78	-0.04
1575.14	0.2
1575.5	0.2
1575.86	-0.6
1576.22	-0.64
1576.58	-0.56
1576.94	-0.6
1577.3	-0.52
1577.67	0.48
1578.03	0.6
1578.39	0.6
1578.75	0.48
1579.11	0.4
1579.47	0.28
1579.83	0.16
1580.19	0.28
1580.55	0.4
1580.91	0.56
1581.27	0.48
1581.63	0.8
1581.99	0.8
1582.35	0.76
1582.71	0.84
1583.07	0.84
1583.43	0.52
1583.79	0.4
1584.15	0.24
1584.51	0.52
1584.87	0.56
1585.23	0.56
1585.59	0.56
1585.95	0.64
1586.31	0.12
1586.67	0.2
1587.03	0.24
1587.39	0.24
1587.75	0.28
1588.11	0.36
1588.47	0.24
1588.83	0.2
1589.19	0.24
1589.55	0.2
1589.91	0.12
1590.27	0.24
1590.63	0.44
1590.99	0.48
1591.35	0.48
1591.71	0.52
1592.07	0.4
1592.42	0.6
1592.78	0.8
1593.14	0.84
1593.5	0.8
1593.86	0.92
1594.22	0.52
1594.58	0.56
1594.94	0.48
1595.3	0.48
1595.66	0.36
1596.02	0.4
1596.38	0.12
1596.74	0.08
1597.1	0.28
1597.46	0.36
1597.81	0.48
1598.17	0.44
1598.53	0.44
1598.89	0.4
1599.25	0.36
1599.61	0.2
1599.97	0.2
1600.33	0.2
1600.69	0.04
1601.05	0
1601.4	0.04
1601.76	-0.12
1602.12	-0.04
1602.48	-0.04
1602.84	3.60836e-18
1603.2	-0.04
1603.56	0.16
1603.92	0.08
1604.28	0.36
1604.63	0.32
1604.99	0.48
1605.35	0.76
1605.71	0.76
1606.07	0.48
1606.43	0.48
1606.79	0.44
1607.14	0.12
1607.5	0.4
1607.86	0.52
1608.22	0.8
1608.58	0.68
1608.94	0.8
1609.29	0.52
1609.65	0.28
1610.01	0.04
1610.37	0.04
1610.73	0.04
1611.09	0.04
1611.44	0.16
1611.8	0.24
1612.16	0.24
1612.52	0.12
1612.88	0.28
1613.24	0.32
1613.59	0.2
1613.95	0.52
1614.31	0.52
1614.67	0.36
1615.03	0.76
1615.38	0.88
1615.74	0.56
1616.1	0.56
1616.46	0.56
1616.82	0.24
1617.17	0.56
1617.53	0.56
1617.89	0.88
1618.25	0.88
1618.6	0.76
1618.96	0.32
1619.32	0.32
1619.68	0.04
1620.04	0.4
1620.39	0.28
1620.75	0.72
1621.11	0.72
1621.47	0.92
1621.82	0.8
1622.18	1.12
1622.54	0.68
1622.9	0.76
1623.25	-0.4
1623.61	-0.52
1623.97	-0.32
1624.33	-0.28
1624.68	-0.48
1625.04	0.52
1625.4	1
1625.75	0.24
1626.11	0.2
1626.47	0.56
1626.83	0.48
1627.18	-0.08
1627.54	0.28
1627.9	0.56
1628.26	0.48
1628.61	0.76
1628.97	0.72
1629.33	0.84
1629.68	0.64
1630.04	0.84
1630.4	-0.04
1630.75	0.48
1631.11	0.64
1631.47	0.6
1631.83	0.52
1632.18	1.2
1632.54	0.72
1632.9	0.48
1633.25	0.6
1633.61	0.56
1633.97	0.8
1634.32	0.84
1634.68	0.8
1635.04	0.96
1635.39	0.72
1635.75	0.4
1636.11	0.32
1636.46	0.32
1636.82	0
1637.18	0.04
1637.53	0.4
1637.89	0.6
1638.25	0.64
1638.6	0.88
1638.96	1.24
1639.31	0.88
1639.67	0.72
1640.03	0.68
1640.38	0.6
1640.74	0.48
1641.1	0.64
1641.45	0.64
1641.81	1.04
1642.16	1.12
1642.52	0.92
1642.88	1.28
1643.23	0.64
1643.59	0.28
1643.95	0.2
1644.3	0.12
1644.66	-0.08
1645.01	0.56
1645.37	0.52
1645.73	0.36
1646.08	0.36
1646.44	0.04
1646.79	-0.56
1647.15	-0.52
1647.51	-0.48
1647.86	-0.48
1648.22	-0.48
1648.57	-0.72
1648.93	-0.44
1649.28	-0.36
1649.64	-0.2
1650	-0.2
1650.35	0.64
1650.71	0.32
1651.06	0.2
1651.42	0.08
1651.77	-0.12
1652.13	0.24
1652.48	0.32
1652.84	0.4
1653.2	0.68
1653.55	0.96
1653.91	0.64
1654.26	0.64
1654.62	0.64
1654.97	0.32
1655.33	0.24
1655.68	0.16
1656.04	0.08
1656.39	0.2
1656.75	0.2
1657.1	0.2
1657.46	0.2
1657.81	0.2
1658.17	0
1658.52	0.24
1658.88	0.52
1659.23	0.56
1659.59	0.72
1659.94	0.92
1660.3	1.12
1660.65	0.88
1661.01	1.16
1661.36	1
1661.72	1
1662.07	0.84
1662.43	0.88
1662.78	0.76
1663.14	0.84
1663.49	0.68
1663.85	0.52
1664.2	0.64
1664.56	0.44
1664.91	-1
1665.27	-1.04
1665.62	-0.8
1665.98	-0.48
1666.33	-0.48
1666.69	1.08
1667.04	1.16
1667.39	1.2
1667.75	0.76
1668.1	1
1668.46	0.8
1668.81	0.84
1669.17	0.44
1669.52	1
1669.88	0.84
1670.23	0.96
1670.58	1.04
1670.94	1.08
1671.29	0.8
1671.65	1.32
1672	1.4
1672.36	1.32
1672.71	1.28
1673.06	1.24
1673.42	1.04
1673.77	1
1674.13	0.92
1674.48	1.08
1674.83	0.76
1675.19	0.4
1675.54	0.64
1675.9	1.16
1676.25	1.16
1676.6	1.68
1676.96	1.92
1677.31	2.08
1677.67	1.76
1678.02	1.96
1678.37	1.96
1678.73	1.68
1679.08	1.2
1679.43	1.68
1679.79	1.72
1680.14	2.12
1680.5	2.08
1680.85	2.44
1681.2	1.8
1681.56	2.44
1681.91	1.76
1682.26	1.84
1682.62	1.68
1682.97	2.04
1683.32	1.56
1683.68	1.36
1684.03	1.48
1684.38	1.88
1684.74	1.6
1685.09	1.28
1685.44	1.8
1685.8	2.12
1686.15	1.68
1686.5	1.52
1686.86	1.68
1687.21	1.64
1687.56	1.32
1687.92	1.32
1688.27	1.92
1688.62	1.6
1688.98	1.36
1689.33	1.56
1689.68	1.48
1690.03	0.88
1690.39	1
1690.74	1.16
1691.09	0.8
1691.45	0.36
1691.8	0.64
1692.15	0.56
1692.5	0.6
1692.86	1.28
1693.21	1.64
1693.56	1.96
1693.92	2.28
1694.27	1.52
1694.62	0.88
1694.97	0.96
1695.33	0.68
1695.68	0.6
1696.03	1.04
1696.38	1.28
1696.74	1.48
1697.09	1.32
1697.44	1.16
1697.79	1.6
1698.15	1.76
1698.5	2
1698.85	1.88
1699.2	1.28
1699.56	0.68
1699.91	0.72
1700.26	0.16
1700.61	0.2
1700.97	1.08
1701.32	1.12
1701.67	0.84
1702.02	0.8
1702.37	0.76
1702.73	0.44
1703.08	0.88
1703.43	1.08
1703.78	1.44
1704.13	1.4
1704.49	1.76
1704.84	1.44
1705.19	1.24
1705.54	1.24
1705.89	1.44
1706.25	1
1706.6	1.28
1706.95	1.28
1707.3	1.6
1707.65	2.04
1708.01	2.12
1708.36	1.68
1708.71	1.8
1709.06	1.44
1709.41	0.8
1709.76	1.28
1710.12	1.28
1710.47	1.08
1710.82	1
1711.17	1.04
1711.52	1
1711.87	1.28
1712.23	1.64
1712.58	1.96
1712.93	2.44
1713.28	2.28
1713.63	2.08
1713.98	2.08
1714.33	1.92
1714.69	1.52
1715.04	1.08
1715.39	1.28
1715.74	0.84
1716.09	0.72
1716.44	0.6
1716.79	0.88
1717.14	0.76
1717.5	0.72
1717.85	0.68
1718.2	0.84
1718.55	0.64
1718.9	0.48
1719.25	0.48
1719.6	0.36
1719.95	0.32
1720.3	0.28
1720.65	0.48
1721.01	0.48
1721.36	0.56
1721.71	0.44
1722.06	-0.2
1722.41	-0.6
1722.76	-0.6
1723.11	-0.76
1723.46	-0.52
1723.81	0.28
1724.16	0.88
1724.51	0.88
1724.86	0.84
1725.21	0.92
1725.56	0.72
1725.92	0.32
1726.27	0.32
1726.62	0.32
1726.97	0.12
1727.32	0.28
1727.67	0.48
1728.02	0.52
1728.37	0.88
1728.72	1.04
1729.07	1.24
1729.42	1.28
1729.77	1.76
1730.12	1.76
1730.47	1.72
1730.82	1.68
1731.17	1.76
1731.52	2.24
1731.87	2.2
1732.22	2.24
1732.57	2.64
1732.92	3.44
1733.27	3.32
1733.62	4.12
1733.97	4.88
1734.32	4.88
1734.67	5.84
1735.02	5.56
1735.37	7.52
1735.72	7.36
1736.07	10.12
1736.42	10.48
1736.77	13
1737.12	13.16
1737.47	16.28
1737.82	17.68
1738.17	20.16
1738.52	22.52
1738.87	25.16
1739.22	25.4
1739.57	26.76
1739.92	28.68
1740.27	30.44
1740.62	33.04
1740.97	37.28
1741.32	40.72
1741.67	42.72
1742.02	46.16
1742.37	50.52
1742.72	54.8
1743.06	59.16
1743.41	63.64
1743.76	64.8
1744.11	64.92
1744.46	67.16
1744.81	67.88
1745.16	70.36
1745.51	74.32
1745.86	79.36
1746.21	84.68
1746.56	90.56
1746.91	93.72
1747.26	98.6
1747.6	101.48
1747.95	103.16
1748.3	105.76
1748.65	110.12
1749	114.16
1749.35	118.68
1749.7	122.12
1750.05	126.4
1750.4	132.84
1750.75	136.08
1751.09	141.4
1751.44	150.24
1751.79	153.08
1752.14	159.28
1752.49	167.68
1752.84	170.6
1753.19	177.44
1753.54	184.64
1753.88	185.04
1754.23	193.24
1754.58	201.36
1754.93	202.32
1755.28	212.04
1755.63	219.8
1755.98	225.4
1756.32	232.92
1756.67	237.68
1757.02	244.6
1757.37	255.92
1757.72	257.04
1758.07	266.52
1758.42	277.4
1758.76	282.36
1759.11	290.16
1759.46	297.68
1759.81	303.4
1760.16	313.44
1760.5	316.76
1760.85	323.8
1761.2	335.56
1761.55	338.76
1761.9	344.92
1762.25	354.12
1762.59	359.48
1762.94	369.88
1763.29	375.32
1763.64	381.24
1763.99	392.24
1764.33	394.04
1764.68	400.64
1765.03	412.16
1765.38	419.52
1765.73	429.04
1766.07	437.84
1766.42	440.88
1766.77	450.68
1767.12	454.44
1767.46	461.88
1767.81	475.84
1768.16	480.92
1768.51	489.68
1768.85	501.84
1769.2	504.12
1769.55	510.64
1769.9	519
1770.25	520.72
1770.59	531.2
1770.94	537.64
1771.29	540.2
1771.64	554.16
1771.98	563.8
1772.33	565.68
1772.68	578.68
1773.02	590.12
1773.37	594.72
1773.72	609.76
1774.07	622.04
1774.41	625.8
1774.76	642.4
1775.11	646.96
1775.46	643.4
1775.8	647.92
1776.15	645.8
1776.5	638.08
1776.84	650.28
1777.19	656.04
1777.54	670.36
1777.89	690.76
1778.23	698.28
1778.58	713.72
1778.93	725.24
1779.27	727
1779.62	743.76
1779.97	751.8
1780.31	751.16
1780.66	757.04
1781.01	752.68
1781.35	748.6
1781.7	757.04
1782.05	755.28
1782.39	765.56
1782.74	772.64
1783.09	768.4
1783.43	782.2
1783.78	791
1784.13	803.2
1784.47	818.24
1784.82	828.68
1785.17	815.48
1785.51	808.32
1785.86	782.4
1786.21	785.32
1786.55	789.32
1786.9	809.28
1787.25	826.32
1787.59	858.88
1787.94	868.64
1788.29	872.92
1788.63	868.24
1788.98	878.44
1789.32	882.56
1789.67	884.48
1790.02	871.64
1790.36	840.68
1790.71	809.64
1791.06	794.52
1791.4	784.72
1791.75	796.44
1792.09	823.08
1792.44	848.8
1792.79	867.24
1793.13	890.4
1793.48	918.84
1793.82	949.96
1794.17	965.32
1794.52	985.4
1794.86	983.08
1795.21	980.76
1795.55	984.24
1795.9	914.48
1796.24	841.68
1796.59	843.24
1796.94	842.16
1797.28	861.2
1797.63	927.12
1797.97	975.24
1798.32	975.92
1798.66	947
1799.01	935.6
1799.36	946.24
1799.7	935.4
1800.05	951.92
1800.39	967.56
1800.74	914.2
1801.08	922.64
1801.43	948.68
1801.77	930.2
1802.12	922
1802.46	958.6
1802.81	965.64
1803.15	975.08
1803.5	990.08
1803.85	1025.44
1804.19	993.24
1804.54	957.12
1804.88	954.44
1805.23	915.44
1805.57	855.08
1805.92	863.8
1806.26	881.92
1806.61	851.52
1806.95	820.8
1807.3	844.84
1807.64	879.2
1807.99	889.04
1808.33	932.92
1808.68	984.44
1809.02	965.44
1809.37	931.6
1809.71	916.68
1810.06	905.2
1810.4	911.8
1810.75	915.96
1811.09	880.68
1811.43	847.12
1811.78	815.36
1812.12	810.84
1812.47	859
1812.81	921.52
1813.16	963
1813.5	999.92
1813.85	1013.68
1814.19	1020.56
1814.54	1043.96
1814.88	1051.32
1815.23	1045.52
1815.57	1047.56
1815.91	1002.84
1816.26	896
1816.6	829.16
1816.95	787.88
1817.29	712.88
1817.64	683.16
1817.98	715.84
1818.32	748.52
1818.67	787.4
1819.01	843.48
1819.36	901.64
1819.7	941.64
1820.05	946.32
1820.39	937.04
1820.73	960.8
1821.08	967.04
1821.42	982
1821.77	1027.92
1822.11	1030.28
1822.45	974.44
1822.8	945.28
1823.14	933.28
1823.49	840.96
1823.83	781.08
1824.17	803.68
1824.52	820.16
1824.86	836.16
1825.2	914.04
1825.55	979.76
1825.89	1001.08
1826.24	982.12
1826.58	920.28
1826.92	887.28
1827.27	866.72
1827.61	852.88
1827.95	890.04
1828.3	955.4
1828.64	980.6
1828.98	1006.88
1829.33	986.64
1829.67	898.2
1830.02	847.64
1830.36	805.92
1830.7	752.76
1831.05	771.68
1831.39	843.88
1831.73	873.96
1832.08	914.08
1832.42	947.96
1832.76	945.32
1833.1	946.92
1833.45	956.4
1833.79	932.4
1834.13	897.64
1834.48	888.96
1834.82	865.6
1835.16	857.32
1835.51	871.2
1835.85	902.24
1836.19	924.24
1836.54	942.08
1836.88	939.8
1837.22	915.32
1837.56	873.6
1837.91	782.08
1838.25	703.76
1838.59	675.4
1838.94	680.76
1839.28	708.44
1839.62	754.6
1839.96	796.84
1840.31	802.2
1840.65	802.56
1840.99	744.28
1841.34	677.92
1841.68	646.16
1842.02	622.16
1842.36	609.52
1842.71	669.16
1843.05	724.6
1843.39	695.6
1843.73	651.96
1844.08	614.24
1844.42	564.84
1844.76	574.24
1845.1	639.52
1845.45	684.2
1845.79	693.44
1846.13	712.6
1846.47	722.48
1846.81	712.28
1847.16	705.16
1847.5	687.44
1847.84	669.44
1848.18	658.16
1848.53	658.4
1848.87	677.44
1849.21	718.12
1849.55	752.08
1849.89	754.12
1850.24	761.48
1850.58	763.6
1850.92	753.8
1851.26	748.16
1851.6	739.64
1851.95	733.72
1852.29	731.72
1852.63	740.48
1852.97	741.76
1853.31	748.64
1853.66	744.8
1854	724.88
1854.34	708.76
1854.68	679.36
1855.02	664.6
1855.36	665.04
1855.71	674.36
1856.05	678.08
1856.39	689.76
1856.73	691.96
1857.07	680.88
1857.41	665.92
1857.76	668
1858.1	669.6
1858.44	677.6
1858.78	680.32
1859.12	691.64
1859.46	693.56
1859.8	686.92
1860.15	678.88
1860.49	635.52
1860.83	601.72
1861.17	588.04
1861.51	587.36
1861.85	584.48
1862.19	608.48
1862.53	606.72
1862.88	593.76
1863.22	589.96
1863.56	585.52
1863.9	581.4
1864.24	593.68
1864.58	600.56
1864.92	597.48
1865.26	594.04
1865.6	604.28
1865.94	610.84
1866.29	608.24
1866.63	605.76
1866.97	600.76
1867.31	592.12
1867.65	572.36
1867.99	558.2
1868.33	548.64
1868.67	532.08
1869.01	514.04
1869.35	487.76
1869.69	461.88
1870.03	438.48
1870.37	422.08
1870.72	422.04
1871.06	450.2
1871.4	473
1871.74	488.24
1872.08	498.16
1872.42	478.4
1872.76	451.76
1873.1	439.76
1873.44	434.6
1873.78	432.44
1874.12	448.56
1874.46	450.36
1874.8	425.68
1875.14	398
1875.48	387.88
1875.82	370.68
1876.16	360.44
1876.5	366.96
1876.84	380.68
1877.18	383.16
1877.52	393.8
1877.86	412.4
1878.2	419.96
1878.54	420.56
1878.88	419.68
1879.22	417.8
1879.56	410.12
1879.9	405.16
1880.24	398.84
1880.58	383.8
1880.92	369.68
1881.26	363.88
1881.6	366.68
1881.94	367.2
1882.28	369.08
1882.62	357.32
1882.96	334
1883.3	313.44
1883.64	302
1883.98	299.24
1884.32	310.6
1884.66	332.32
1885	344.08
1885.34	341.96
1885.68	334.04
1886.02	328.72
1886.36	323.64
1886.7	322.8
1887.04	324.72
1887.38	328.72
1887.72	329.88
1888.06	327.96
1888.39	322.12
1888.73	318.36
1889.07	303.44
1889.41	283.76
1889.75	271.24
1890.09	247.8
1890.43	221.68
1890.77	223.92
1891.11	234.04
1891.45	239.52
1891.79	256.88
1892.13	278.52
1892.47	279.44
1892.8	276.88
1893.14	271.44
1893.48	263.36
1893.82	246.48
1894.16	238.36
1894.5	234.24
1894.84	231.72
1895.18	231.52
1895.52	240.52
1895.86	241.76
1896.19	237.44
1896.53	233.08
1896.87	225.04
1897.21	217.8
1897.55	214.6
1897.89	212.48
1898.23	202.52
1898.57	197.36
1898.9	194
1899.24	189.56
1899.58	185.52
1899.92	188.76
1900.26	189.48
1900.6	187.76
1900.94	183.92
1901.27	180.8
1901.61	177.24
1901.95	177.68
1902.29	173.76
1902.63	171.64
1902.97	169.76
1903.3	168.12
1903.64	161.96
1903.98	157.24
1904.32	153.96
1904.66	152.2
1905	149.64
1905.33	150.44
1905.67	150.48
1906.01	149.52
1906.35	143.32
1906.69	140.64
1907.02	135.6
1907.36	134.28
1907.7	132.28
1908.04	131.6
1908.38	129.48
1908.71	130.16
1909.05	125.48
1909.39	122.76
1909.73	119.96
1910.07	116.2
1910.4	113.88
1910.74	113.32
1911.08	112.2
1911.42	113.28
1911.76	113.6
1912.09	110.56
1912.43	108.68
1912.77	107.2
1913.11	104.12
1913.44	102.76
1913.78	100.68
1914.12	100.36
1914.46	96.72
1914.79	94.8
1915.13	92.12
1915.47	90.84
1915.81	87.88
1916.14	86.68
1916.48	85.44
1916.82	82.6
1917.16	81.48
1917.49	79
1917.83	77.36
1918.17	76.16
1918.5	75.68
1918.84	72.88
1919.18	71.52
1919.52	70
1919.85	67.84
1920.19	67.04
1920.53	66.32
1920.87	64.8
1921.2	63.32
1921.54	62.76
1921.88	59.6
1922.21	58.6
1922.55	56.92
1922.89	55.2
1923.22	52.24
1923.56	52.32
1923.9	49.72
1924.23	50
1924.57	48.48
1924.91	47.84
1925.25	46
1925.58	45.8
1925.92	42.88
1926.26	41.32
1926.59	39.56
1926.93	38.4
1927.27	36.84
1927.6	36.76
1927.94	35.6
1928.28	35.64
1928.61	35
1928.95	34.8
1929.29	33.36
1929.62	34.44
1929.96	33.92
1930.29	32.44
1930.63	30.48
1930.97	31.24
1931.3	30.64
1931.64	29.28
1931.98	30.08
1932.31	29.56
1932.65	27.64
1932.99	26.8
1933.32	24.32
1933.66	22.56
1933.99	23.4
1934.33	24.92
1934.67	21.44
1935	22.48
1935.34	22.2
1935.67	20.04
1936.01	17.96
1936.35	18.56
1936.68	18.88
1937.02	17.28
1937.35	18.6
1937.69	17.08
1938.03	18.32
1938.36	15.12
1938.7	16.28
1939.03	15
1939.37	15.88
1939.7	15.68
1940.04	17.44
1940.38	17.64
1940.71	17.04
1941.05	15.88
1941.38	14.92
1941.72	14.16
1942.05	12.36
1942.39	12.96
1942.73	12.76
1943.06	12.08
1943.4	13.4
1943.73	13.44
1944.07	12.64
1944.4	12.72
1944.74	13.8
1945.07	12.92
1945.41	14.08
1945.74	13.48
1946.08	13.04
1946.42	11.92
1946.75	12.04
1947.09	10.72
1947.42	10.64
1947.76	10.44
1948.09	9.96
1948.43	8.88
1948.76	8.36
1949.1	7.64
1949.43	8.4
1949.77	8.28
1950.1	7.6
1950.44	7.76
1950.77	8.12
1951.11	7.04
1951.44	6.4
1951.78	7
1952.11	6.12
1952.45	5.44
1952.78	5.6
1953.12	5.52
1953.45	4.88
1953.79	6.56
1954.12	6.48
1954.46	5.56
1954.79	7.36
1955.12	8.4
1955.46	7.08
1955.79	7.88
1956.13	8.28
1956.46	6.52
1956.8	4.36
1957.13	4.32
1957.47	3.56
1957.8	3.6
1958.14	3
1958.47	3.76
1958.8	3.64
1959.14	4.08
1959.47	3.88
1959.81	3.96
1960.14	3.84
1960.48	3.88
1960.81	3.08
1961.14	3.52
1961.48	3.28
1961.81	3.28
1962.15	3.16
1962.48	3.56
1962.82	2.76
1963.15	3.16
1963.48	3
1963.82	2.8
1964.15	2.32
1964.49	2.44
1964.82	2.28
1965.15	2.8
1965.49	2.44
1965.82	2.68
1966.16	2.64
1966.49	3.08
1966.82	2.96
1967.16	3.28
1967.49	3.2
1967.83	2.8
1968.16	2.12
1968.49	1.48
1968.83	1.68
1969.16	1.76
1969.49	1.84
1969.83	1.92
1970.16	1.88
1970.49	1.28
1970.83	0.8
1971.16	0.64
1971.5	-0.04
1971.83	0.08
1972.16	0.08
1972.5	0.4
1972.83	0.32
1973.16	1.44
1973.5	1.64
1973.83	1.64
1974.16	1.28
1974.5	1.08
1974.83	0.64
1975.16	0.24
1975.5	0.6
1975.83	1.04
1976.16	1.24
1976.49	0.96
1976.83	1.2
1977.16	0.68
1977.49	0.24
1977.83	0.4
1978.16	0.4
1978.49	0.2
1978.83	0.24
1979.16	0.24
1979.49	0.28
1979.83	0.4
1980.16	0.36
1980.49	0.32
1980.82	0.36
1981.16	0.48
1981.49	0.52
1981.82	0.4
1982.15	0.48
1982.49	0.88
1982.82	0.56
1983.15	0.56
1983.49	0.8
1983.82	1.24
1984.15	0.8
1984.48	0.8
1984.82	0.72
1985.15	0.72
1985.48	0.28
1985.81	0.4
1986.15	0.8
1986.48	0.72
1986.81	0.68
1987.14	0.64
1987.48	0.8
1987.81	0.64
1988.14	1.04
1988.47	1.76
1988.81	2.32
1989.14	2.12
1989.47	2.32
1989.8	2.48
1990.13	1.84
1990.47	1.36
1990.8	2.4
1991.13	2.04
1991.46	2.44
1991.79	2.04
1992.13	1.32
1992.46	0.68
1992.79	1.04
1993.12	0.44
1993.45	0.64
1993.79	2.16
1994.12	2.96
1994.45	2.72
1994.78	3.28
1995.11	3.8
1995.45	4.08
1995.78	3.04
1996.11	3.24
1996.44	3.24
1996.77	3.96
1997.1	3.52
1997.44	4.16
1997.77	5.6
1998.1	5.72
1998.43	6.56
1998.76	7.24
1999.09	7.96
1999.43	6.24
1999.76	6.84
2000.09	6.12
2000.42	5.92
2000.75	3.92
2001.08	7.16
2001.41	7.24
2001.75	6.76
2002.08	6.52
2002.41	8.36
2002.74	7
2003.07	6.88
2003.4	7.76
2003.73	8.6
2004.06	9.04
2004.4	8.08
2004.73	7.88
2005.06	8.68
2005.39	9.28
2005.72	8.76
2006.05	10.28
2006.38	10.28
2006.71	9.8
2007.04	8.96
2007.37	10.28
2007.71	11.24
2008.04	12.08
2008.37	12.44
2008.7	12.4
2009.03	11.88
2009.36	10.88
2009.69	10.56
2010.02	9.76
2010.35	10.64
2010.68	10.24
2011.01	11.92
2011.34	11.72
2011.67	11.92
2012.01	11.36
2012.34	10.48
2012.67	8.84
2013	9.56
2013.33	8.64
2013.66	9.08
2013.99	10.12
2014.32	9.2
2014.65	9.32
2014.98	9.8
2015.31	9.72
2015.64	10.84
2015.97	11
2016.3	10.24
2016.63	11.56
2016.96	10.8
2017.29	9.08
2017.62	9.12
2017.95	9.52
2018.28	8.12
2018.61	8.56
2018.94	9.08
2019.27	8.56
2019.6	8
2019.93	8.36
2020.26	7.96
2020.59	7.48
2020.92	8.6
2021.25	9
2021.58	9.08
2021.91	8.92
2022.24	9.2
2022.57	8.04
2022.9	7.52
2023.23	6.48
2023.56	7.16
2023.89	7.52
2024.22	7.64
2024.55	6.88
2024.88	7.92
2025.21	6.88
2025.54	6.56
2025.87	6.44
2026.2	6.4
2026.53	6.2
2026.86	6.84
2027.19	6.12
2027.52	5.76
2027.85	5.52
2028.18	4.76
2028.51	3.88
2028.84	3.8
2029.16	3.96
2029.49	4.08
2029.82	4
2030.15	3.64
2030.48	3.12
2030.81	3.16
2031.14	3.64
2031.47	3.36
2031.8	3.16
2032.13	3.2
2032.46	2.6
2032.79	1.96
2033.12	2.08
2033.44	2.4
2033.77	2.8
2034.1	2.92
2034.43	2.88
2034.76	3.2
2035.09	3.52
2035.42	3.08
2035.75	2.84
2036.08	2.64
2036.41	2.04
2036.73	1.76
2037.06	2.16
2037.39	1.96
2037.72	2.32
2038.05	2.56
2038.38	2.44
2038.71	1.68
2039.04	0.84
2039.36	0.56
2039.69	0.6
2040.02	0.52
2040.35	0.64
2040.68	1.68
2041.01	1.8
2041.34	1.52
2041.66	1.44
2041.99	1.72
2042.32	1.56
2042.65	2.72
2042.98	2.96
2043.31	3.16
2043.63	3.04
2043.96	3.24
2044.29	1.96
2044.62	1.56
2044.95	1.24
2045.28	1.28
2045.6	0.84
2045.93	0.76
2046.26	0.76
2046.59	1.04
2046.92	0.72
2047.24	1.32
2047.57	1.72
2047.9	1.8
2048.23	1.64
2048.56	1.64
2048.88	1.24
2049.21	0.96
2049.54	1.2
2049.87	1
2050.2	1.08
2050.52	1.04
2050.85	0.84
2051.18	0.76
2051.51	1.16
2051.83	1.68
2052.16	1.56
2052.49	1.56
2052.82	1.4
2053.15	0.92
2053.47	0.36
2053.8	0.36
2054.13	0.64
2054.46	0.48
2054.78	1.04
2055.11	1.2
2055.44	1.04
2055.77	0.8
2056.09	0.84
2056.42	0.36
2056.75	0.92
2057.08	1.2
2057.4	1.52
2057.73	1.8
2058.06	2
2058.38	1.4
2058.71	1.24
2059.04	1.76
2059.37	1.72
2059.69	1.88
2060.02	1.72
2060.35	1.96
2060.67	1.16
2061	1.72
2061.33	1.56
2061.66	1.72
2061.98	1.48
2062.31	1.64
2062.64	1
2062.96	1.08
2063.29	1.12
2063.62	1.44
2063.94	1.6
2064.27	1.52
2064.6	0.56
2064.92	0.72
2065.25	0.92
2065.58	0.6
2065.91	0.48
2066.23	1.44
2066.56	1.48
2066.89	1.16
2067.21	1.52
2067.54	1.52
2067.87	1.16
2068.19	1.48
2068.52	1.48
2068.84	1.28
2069.17	1.64
2069.5	2.04
2069.82	1.76
2070.15	1.64
2070.48	1.84
2070.8	1.84
2071.13	1.8
2071.46	1.36
2071.78	1.32
2072.11	1.08
2072.43	0.76
2072.76	0.96
2073.09	1.32
2073.41	1.68
2073.74	2
2074.07	2.28
2074.39	2.28
2074.72	1.92
2075.04	1.72
2075.37	1.12
2075.7	1.16
2076.02	0.64
2076.35	0.72
2076.67	0.6
2077	0.56
2077.33	0.56
2077.65	0.72
2077.98	0.64
2078.3	0.8
2078.63	0.8
2078.95	0.96
2079.28	0.76
2079.61	0.2
2079.93	0.96
2080.26	1.52
2080.58	1.36
2080.91	1.4
2081.23	2
2081.56	1.32
2081.89	0.96
2082.21	0.72
2082.54	0.68
2082.86	1.4
2083.19	1.76
2083.51	1.96
2083.84	2.12
2084.16	2.72
2084.49	2.12
2084.81	1.48
2085.14	1.48
2085.46	1.2
2085.79	0.64
2086.12	0.68
2086.44	1.28
2086.77	1.24
2087.09	1.6
2087.42	1.84
2087.74	1.88
2088.07	1.36
2088.39	1.36
2088.72	1.08
2089.04	1.36
2089.37	1.52
2089.69	1.6
2090.02	1.44
2090.34	1
2090.67	0.6
2090.99	-2
2091.32	-2.08
2091.64	-1.92
2091.97	-1.44
2092.29	-1.2
2092.62	1.12
2092.94	1.36
2093.26	1.4
2093.59	1.4
2093.91	-0.16
2094.24	-0.08
2094.56	0.48
2094.89	0.44
2095.21	0.32
2095.54	1.88
2095.86	2.64
2096.19	1.84
2096.51	1.52
2096.84	1.76
2097.16	1.72
2097.48	1.44
2097.81	1.44
2098.13	1.52
2098.46	0.88
2098.78	1.08
2099.11	0.68
2099.43	0.64
2099.75	0.6
2100.08	1.08
2100.4	1.04
2100.73	0.96
2101.05	1.08
2101.38	1.04
2101.7	1.32
2102.02	0.96
2102.35	0.96
2102.67	1.44
2103	1.4
2103.32	1.2
2103.64	1.04
2103.97	0.84
2104.29	0.6
2104.62	0.8
2104.94	1
2105.26	0.52
2105.59	1.24
2105.91	0.8
2106.23	0.92
2106.56	0.68
2106.88	1.28
2107.21	0.64
2107.53	0.72
2107.85	0.64
2108.18	0.68
2108.5	0.64
2108.82	0.96
2109.15	1
2109.47	0.76
2109.79	0.68
2110.12	0.92
2110.44	0.72
2110.76	1.04
2111.09	1.24
2111.41	1.32
2111.73	1.4
2112.06	1.4
2112.38	1.44
2112.7	0.72
2113.03	0.76
2113.35	0.64
2113.67	0.44
2114	0.2
2114.32	0.96
2114.64	1.2
2114.97	1.24
2115.29	1.4
2115.61	1.32
2115.94	1.76
2116.26	1.56
2116.58	1.44
2116.91	0.4
2117.23	0.28
2117.55	-0.4
2117.87	-0.56
2118.2	-0.44
2118.52	0.44
2118.84	0.48
2119.17	0.76
2119.49	0.84
2119.81	0.52
2120.13	0.68
2120.46	0.64
2120.78	-0.4
2121.1	-0.52
2121.42	-0.36
2121.75	-0.48
2122.07	-0.52
2122.39	0.24
2122.72	0.36
2123.04	0.56
2123.36	1.24
2123.68	1.72
2124.01	1.8
2124.33	1.64
2124.65	1.56
2124.97	0.92
2125.29	0.64
2125.62	0.84
2125.94	1
2126.26	1.12
2126.58	1.04
2126.91	-0.12
2127.23	-0.4
2127.55	-0.56
2127.87	-0.76
2128.2	-0.64
2128.52	0.44
2128.84	0.44
2129.16	0.68
2129.48	0.96
2129.81	0.84
2130.13	0.72
2130.45	0.84
2130.77	0.96
2131.09	1.08
2131.42	1.32
2131.74	1.4
2132.06	1.28
2132.38	1.16
2132.7	0.8
2133.02	0.8
2133.35	1.12
2133.67	1.24
2133.99	1.08
2134.31	0.36
2134.63	0.6
2134.96	0.2
2135.28	0.08
2135.6	0.04
2135.92	0.72
2136.24	0.48
2136.56	0.56
2136.88	0.68
2137.21	0.64
2137.53	0.52
2137.85	0.92
2138.17	0.28
2138.49	0.6
2138.81	1.32
2139.13	1.24
2139.46	0.8
2139.78	1.68
2140.1	1.28
2140.42	0.76
2140.74	0.84
2141.06	0.96
2141.38	0.64
2141.7	0.84
2142.03	0.76
2142.35	0.8
2142.67	0.48
2142.99	0.48
2143.31	0.24
2143.63	0.16
2143.95	0.24
2144.27	0.4
2144.59	0.64
2144.91	0.72
2145.24	0.68
2145.56	0.76
2145.88	0.68
2146.2	0.6
2146.52	0.52
2146.84	0.72
2147.16	0.68
2147.48	0.68
2147.8	0.52
2148.12	0.52
2148.44	0.72
2148.76	0.48
2149.08	0.6
2149.41	0.6
2149.73	0.6
2150.05	0.24
2150.37	0.28
2150.69	0.12
2151.01	0.12
2151.33	0.12
2151.65	0.16
2151.97	0.12
2152.29	0.08
2152.61	-0.28
2152.93	-0.24
2153.25	-0.28
2153.57	-0.12
2153.89	0.08
2154.21	0.04
2154.53	0.2
2154.85	0.16
2155.17	0
2155.49	-0.32
2155.81	0.4
2156.13	0.56
2156.45	0.6
2156.77	0.6
2157.09	0.92
2157.41	0.6
2157.73	0.24
2158.05	0.2
2158.37	1.04
2158.69	0.92
2159.01	1.04
2159.33	1.04
2159.65	1.04
2159.97	0.2
2160.29	0.2
2160.61	0.08
2160.93	0.08
2161.25	0.28
2161.57	0.28
2161.89	0.24
2162.21	0.24
2162.53	0.32
2162.85	-0.4
2163.17	-0.04
2163.49	0.04
2163.81	0.04
2164.13	0.08
2164.45	5.55112e-17
2164.77	-0.28
2165.08	-0.4
2165.4	-0.4
2165.72	-0.4
2166.04	0.2
2166.36	0.12
2166.68	0.12
2167	0.4
2167.32	0.28
2167.64	0.28
2167.96	0.32
2168.28	0.48
2168.6	0.44
2168.92	0.44
2169.24	0.44
2169.55	0.4
2169.87	0.28
2170.19	0.24
2170.51	0.24
2170.83	0.24
2171.15	0.56
2171.47	1
2171.79	1
2172.11	1
2172.43	1
2172.74	0.88
2173.06	0.76
2173.38	0.68
2173.7	1.16
2174.02	1.36
2174.34	1.28
2174.66	0.92
2174.98	0.84
2175.29	0.36
2175.61	0.16
2175.93	0.04
2176.25	0.08
2176.57	0.04
2176.89	0.04
2177.21	0.04
2177.52	0.04
2177.84	0
2178.16	0.08
2178.48	0.36
2178.8	0.48
2179.12	0.56
2179.43	0.6
2179.75	-0.24
2180.07	-0.52
2180.39	-0.6
2180.71	-0.68
2181.03	-0.44
2181.34	0.68
2181.66	0.68
2181.98	0.8
2182.3	0.96
2182.62	0.68
2182.93	0.52
2183.25	0.64
2183.57	0.48
2183.89	0.88
2184.21	0.88
2184.52	0.68
2184.84	0.56
2185.16	0.64
2185.48	0.2
2185.8	0.36
2186.11	0.64
2186.43	0.84
2186.75	0.84
2187.07	0.32
2187.39	-0.48
2187.7	-0.76
2188.02	-1.56
2188.34	-1.52
2188.66	-1
2188.97	-0.12
2189.29	-0.12
2189.61	0.52
2189.93	0.64
2190.24	0.52
2190.56	0.52
2190.88	0.64
2191.2	0.6
2191.51	0.48
2191.83	0.48
2192.15	0.56
2192.47	0.6
2192.78	0.64
2193.1	0.68
2193.42	0.84
2193.74	0.88
2194.05	0.72
2194.37	1.12
2194.69	1.12
2195	0.56
2195.32	0.36
2195.64	0.56
2195.96	0.28
2196.27	0.28
2196.59	0.2
2196.91	0.2
2197.22	0.04
2197.54	8.99278e-17
2197.86	-0.16
2198.18	0.4
2198.49	0.24
2198.81	0.2
2199.13	0.08
2199.44	0.08
2199.76	0.04
2200.08	0.04
2200.39	0.04
2200.71	0.04
2201.03	0.04
2201.34	0.12
2201.66	0.48
2201.98	0.52
2202.29	0.52
2202.61	0.52
2202.93	0.44
2203.24	0.12
2203.56	0.08
2203.88	0.2
2204.19	0.44
2204.51	0.4
2204.83	0.36
2205.14	0.52
2205.46	0.6
2205.78	0.4
2206.09	0.44
2206.41	0.24
2206.72	0.04
2207.04	-0.12
2207.36	-0.16
2207.67	-0.12
2207.99	0.08
2208.31	0.52
2208.62	0.48
2208.94	0.52
2209.25	0.52
2209.57	0.52
2209.89	0.16
2210.2	0.28
2210.52	0.36
2210.83	0.36
2211.15	0.4
2211.47	0.36
2211.78	0.28
2212.1	-0.16
2212.41	-0.24
2212.73	-0.28
2213.05	-0.04
2213.36	-0.08
2213.68	0.28
2213.99	0.32
2214.31	0.52
2214.62	0.32
2214.94	0.32
2215.26	0.36
2215.57	0.32
2215.89	0.32
2216.2	0.28
2216.52	0.32
2216.83	0.28
2217.15	0.64
2217.46	0.72
2217.78	0.96
2218.1	0.72
2218.41	0.68
2218.73	0.96
2219.04	0.68
2219.36	0.96
2219.67	1.32
2219.99	1.32
2220.3	0.88
2220.62	0.88
2220.93	0.52
2221.25	0.48
2221.56	0.72
2221.88	0.56
2222.19	0.56
2222.51	0.44
2222.82	-1.08
2223.14	-1.16
2223.45	-1.2
2223.77	-1.08
2224.08	-1.12
2224.4	0.48
2224.71	0.32
2225.03	0.32
2225.34	0.24
2225.66	-1.16
2225.97	-1.16
2226.29	-1.08
2226.6	-1.08
2226.92	-0.96
2227.23	0.6
2227.55	0.6
2227.86	0.52
2228.18	0.76
2228.49	0.72
2228.81	0.56
2229.12	0.64
2229.44	0.88
2229.75	0.76
2230.07	0.84
2230.38	1.12
2230.69	0.96
2231.01	0.76
2231.32	0.64
2231.64	0.56
2231.95	0.28
2232.27	0.2
2232.58	0.16
2232.9	0.16
2233.21	0.92
2233.52	0.92
2233.84	0.92
2234.15	1
2234.47	1.08
2234.78	0.24
2235.1	0.24
2235.41	0.48
2235.72	0.6
2236.04	0.52
2236.35	0.72
2236.67	0.48
2236.98	0.2
2237.29	-1.33221e-17
2237.61	-1.33221e-17
2237.92	-0.24
2238.24	0
2238.55	0.16
2238.86	0.28
2239.18	0.32
2239.49	-0.32
2239.8	-0.24
2240.12	-0.4
2240.43	-0.52
2240.75	-0.4
2241.06	0.24
2241.37	0.16
2241.69	0.48
2242	0.76
2242.31	0.6
2242.63	0.64
2242.94	0.64
2243.26	-0.24
2243.57	-0.4
2243.88	-0.24
2244.2	-0.24
2244.51	-0.08
2244.82	0.48
2245.14	0.48
2245.45	0.32
2245.76	0.28
2246.08	0.32
2246.39	0.32
2246.7	0.4
2247.02	0.48
2247.33	0.6
2247.64	0.4
2247.96	0.4
2248.27	0.2
2248.58	-0.72
2248.9	-0.8
2249.21	-0.56
2249.52	-0.56
2249.83	-0.56
2250.15	0.36
2250.46	0.32
2250.77	0.08
2251.09	0.16
2251.4	0.2
2251.71	0.28
2252.03	0.72
2252.34	0.72
2252.65	0.72
2252.96	1.52
2253.28	1.4
2253.59	0.96
2253.9	0.96
2254.21	0.88
2254.53	0.12
2254.84	-0.28
2255.15	-0.28
2255.47	-0.04
2255.78	-0.04
2256.09	-3.49723e-17
2256.4	0.36
2256.72	0.36
2257.03	0.12
2257.34	0.12
2257.65	0
2257.97	0
2258.28	0.12
2258.59	0.28
2258.9	0.4
2259.22	0.4
2259.53	0.72
2259.84	0.6
2260.15	0.44
2260.46	0.32
2260.78	0.32
2261.09	0
2261.4	0
2261.71	0.6
2262.03	0.72
2262.34	0.72
2262.65	0.72
2262.96	0.84
2263.27	0.24
2263.59	0.2
2263.9	0.4
2264.21	0.64
2264.52	0.6
2264.83	0.64
2265.15	0.64
2265.46	0.44
2265.77	0.24
2266.08	0.52
2266.39	0.48
2266.7	0.76
2267.02	0.84
2267.33	0.4
2267.64	0.32
2267.95	0.4
2268.26	0.04
2268.57	0.04
2268.89	0.44
2269.2	0.16
2269.51	0.2
2269.82	0.2
2270.13	0.12
2270.44	0.44
2270.76	0.04
2271.07	0.04
2271.38	-0.56
2271.69	-0.52
2272	-0.84
2272.31	-0.64
2272.62	-1.56
2272.93	-0.84
2273.25	-0.76
2273.56	-0.6
2273.87	-0.28
2274.18	0.52
2274.49	0.4
2274.8	0.32
2275.11	0.28
2275.42	0.16
2275.74	0.16
2276.05	0.28
2276.36	0.24
2276.67	0.12
2276.98	0.12
2277.29	0.24
2277.6	0.28
2277.91	0.32
2278.22	0.16
2278.53	0.24
2278.85	0.12
2279.16	-1
2279.47	-1
2279.78	-0.84
2280.09	-0.92
2280.4	-0.8
2280.71	0.32
2281.02	0.52
2281.33	0.6
2281.64	0.84
2281.95	0.72
2282.26	0.56
2282.57	0.36
2282.88	0.28
2283.19	0.32
2283.5	0.56
2283.82	0.56
2284.13	0.52
2284.44	0.64
2284.75	-0.2
2285.06	-0.28
2285.37	-0.12
2285.68	0.04
2285.99	0.12
2286.3	0.68
2286.61	0.68
2286.92	0.52
2287.23	0.6
2287.54	0.4
2287.85	0.44
2288.16	0.28
2288.47	0.4
2288.78	0.16
2289.09	0.24
2289.4	0.6
2289.71	1.04
2290.02	0.92
2290.33	0.92
2290.64	0.84
2290.95	0.24
2291.26	-0.2
2291.57	-0.2
2291.88	-0.52
2292.19	-0.36
2292.5	-0.16
2292.81	-0.16
2293.12	-0.16
2293.43	0.16
2293.74	0
2294.05	0
2294.36	0
2294.67	0
2294.98	0
2295.29	0
2295.6	0
2295.91	0
2296.21	0
2296.52	0
2296.83	0
2297.14	0
2297.45	0
2297.76	0
2298.07	0
2298.38	0
2298.69	0
2299	0
2299.31	0
2299.62	0
2299.93	0
2300.24	0
2300.55	0
2300.85	0
2301.16	0
2301.47	0
2301.78	0
2302.09	0
2302.4	0
2302.71	0
2303.02	0
2303.33	0
2303.64	0
2303.94	0
2304.25	0
2304.56	0
2304.87	0
2305.18	0
2305.49	0
2305.8	0
2306.11	0
2306.42	0
2306.72	0
2307.03	0
2307.34	0
2307.65	0
2307.96	0
2308.27	0
2308.58	0
2308.88	0
2309.19	0
2309.5	0
2309.81	0
2310.12	0
2310.43	0
2310.74	0
2311.04	0
2311.35	0
2311.66	0
2311.97	0
2312.28	0
2312.59	0
2312.89	0
2313.2	0
2313.51	0
2313.82	0
2314.13	0
2314.43	0
2314.74	0
2315.05	0
2315.36	0
2315.67	0
2315.97	0
2316.28	0
2316.59	0
2316.9	0
2317.21	0
2317.51	0
2317.82	0
2318.13	0
2318.44	0
2318.75	0
2319.05	0
2319.36	0
2319.67	0
2319.98	0
2320.28	0
2320.59	0
2320.9	0
2321.21	0
2321.51	0
2321.82	0
2322.13	0
2322.44	0
2322.74	0
2323.05	0
2323.36	0
2323.67	0
2323.97	0
2324.28	0
2324.59	0
2324.9	0
2325.2	0
2325.51	0
2325.82	0
2326.13	0
2326.43	0
2326.74	0
2327.05	0
2327.35	0
2327.66	0
2327.97	0
2328.27	0
2328.58	0
2328.89	0
2329.2	0
2329.5	0
2329.81	0
2330.12	0
2330.42	0
2330.73	0
2331.04	0
2331.34	0
2331.65	0
2331.96	0
2332.26	0
2332.57	0
2332.88	0
2333.18	0
2333.49	0
2333.8	0
2334.1	0
2334.41	0
2334.72	0
2335.02	0
2335.33	0
2335.64	0
2335.94	0
2336.25	0
2336.56	0
2336.86	0
2337.17	0
2337.48	0
2337.78	0
2338.09	0
2338.39	0
2338.7	0
2339.01	0
2339.31	0
2339.62	0
2339.93	0
2340.23	0
2340.54	0
2340.84	0
2341.15	0
2341.46	0
2341.76	0
2342.07	0
2342.37	0
2342.68	0
2342.99	0
2343.29	0
2343.6	0
2343.9	0
2344.21	0
2344.51	0
2344.82	0
2345.13	0
2345.43	0
2345.74	0
2346.04	0
2346.35	0
2346.65	0
2346.96	0
2347.27	0
2347.57	0
2347.88	0
2348.18	0
2348.49	0
2348.79	0
2349.1	0
2349.4	0
2349.71	0
2350.01	0
2350.32	0
2350.63	0
2350.93	0
2351.24	0
2351.54	0
2351.85	0
2352.15	0
2352.46	0
2352.76	0
2353.07	0
2353.37	0
2353.68	0
2353.98	0
2354.29	0
2354.59	0
2354.9	0
2355.2	0
2355.51	0
2355.81	0
2356.12	0
2356.42	0
2356.73	0
2357.03	0
2357.34	0
2357.64	0
2357.95	0
2358.25	0
2358.55	0
2358.86	0
2359.16	0
2359.47	0
2359.77	0
2360.08	0
2360.38	0
2360.69	0
2360.99	0
2361.3	0
2361.6	0
2361.9	0
2362.21	0
2362.51	0
2362.82	0
2363.12	0
2363.43	0
2363.73	0
2364.04	0
2364.34	0
2364.64	0
2364.95	0
2365.25	0
2365.56	0
2365.86	0
2366.16	0
2366.47	0
2366.77	0
2367.08	0
2367.38	0
2367.68	0
2367.99	0
2368.29	0
2368.6	0
2368.9	0
2369.2	0
2369.51	0
2369.81	0
2370.12	0
2370.42	0
2370.72	0
2371.03	0
2371.33	0
2371.63	0
2371.94	0
2372.24	0
2372.55	0
2372.85	0
2373.15	0
2373.46	0
2373.76	0
2374.06	0
2374.37	0
2374.67	0
2374.97	0
2375.28	0
2375.58	0
2375.88	0
2376.19	0
2376.49	0
2376.79	0
2377.1	0
2377.4	0
2377.7	0
2378.01	0
2378.31	0
2378.61	0
2378.92	0
2379.22	0
2379.52	0
2379.82	0
2380.13	0
2380.43	0
2380.73	0
2381.04	0
2381.34	0
2381.64	0
2381.95	0
2382.25	0
2382.55	0
2382.85	0
2383.16	0
2383.46	0
2383.76	0
2384.06	0
2384.37	0
2384.67	0
2384.97	0
2385.28	0
2385.58	0
2385.88	0
2386.18	0
2386.49	0
2386.79	0
2387.09	0
2387.39	0
2387.69	0
2388	0
2388.3	0
2388.6	0
2388.9	0
2389.21	0
2389.51	0
2389.81	0
2390.11	0
2390.42	0
2390.72	0
2391.02	0
2391.32	0
2391.62	0
2391.93	0
2392.23	0
2392.53	0
2392.83	0
2393.13	0
2393.44	0
2393.74	0
2394.04	0
2394.34	0
2394.64	0
2394.95	0
2395.25	0
2395.55	0
2395.85	0
2396.15	0
2396.45	0
2396.76	0
2397.06	0
2397.36	0
2397.66	0
2397.96	0
2398.26	0
2398.57	0
2398.87	0
2399.17	0
2399.47	0
2399.77	0
2400.07	0
2400.37	0
2400.68	0
2400.98	0
2401.28	0
2401.58	0
2401.88	0
2402.18	0
2402.48	0
2402.79	0
2403.09	0
2403.39	0
2403.69	0
2403.99	0
2404.29	0
2404.59	0
2404.89	0
2405.19	0
2405.5	0
2405.8	0
2406.1	0
2406.4	0
2406.7	0
2407	0
2407.3	0
2407.6	0
2407.9	0
2408.2	0
2408.5	0
2408.8	0
2409.11	0
2409.41	0
2409.71	0
2410.01	0
2410.31	0
2410.61	0
2410.91	0
2411.21	0
2411.51	0
2411.81	0
2412.11	0
2412.41	0
2412.71	0
2413.01	0
2413.31	0
2413.61	0
2413.91	0
2414.21	0
2414.51	0
2414.81	0
2415.12	0
2415.42	0
2415.72	0
2416.02	0
2416.32	0
2416.62	0
2416.92	0
2417.22	0
2417.52	0
2417.82	0
2418.12	0
2418.42	0
2418.72	0
2419.02	0
2419.32	0
2419.62	0
2419.92	0
2420.22	0
2420.52	0
2420.82	0
2421.12	0
2421.42	0
2421.71	0
2422.01	0
2422.31	0
2422.61	0
2422.91	0
2423.21	0
2423.51	0
2423.81	0
2424.11	0
2424.41	0
2424.71	0
2425.01	0
2425.31	0
2425.61	0
2425.91	0
2426.21	0
2426.51	0
2426.81	0
2427.11	0
2427.41	0
2427.7	0
2428	0
2428.3	0
2428.6	0
2428.9	0
2429.2	0
2429.5	0
2429.8	0
2430.1	0
2430.4	0
2430.7	0
2430.99	0
2431.29	0
2431.59	0
2431.89	0
2432.19	0
2432.49	0
2432.79	0
2433.09	0
2433.39	0
2433.68	0
2433.98	0
2434.28	0
2434.58	0
2434.88	0
2435.18	0
2435.48	0
2435.78	0
2436.07	0
2436.37	0
2436.67	0
2436.97	0
2437.27	0
2437.57	0
2437.86	0
2438.16	0
2438.46	0
2438.76	0
2439.06	0
2439.36	0
2439.66	0
2439.95	0
2440.25	0
2440.55	0
2440.85	0
2441.15	0
2441.44	0
2441.74	0
2442.04	0
2442.34	0
2442.64	0
2442.93	0
2443.23	0
2443.53	0
2443.83	0
2444.13	0
2444.42	0
2444.72	0
2445.02	0
2445.32	0
2445.62	0
2445.91	0
2446.21	0
2446.51	0
2446.81	0
2447.1	0
2447.4	0
2447.7	0
2448	0
2448.3	0
2448.59	0
2448.89	0
2449.19	0
2449.49	0
2449.78	0
2450.08	0
2450.38	0
2450.68	0
2450.97	0
2451.27	0
2451.57	0
2451.87	0
2452.16	0
2452.46	0
2452.76	0
2453.05	0
2453.35	0
2453.65	0
2453.95	0
2454.24	0
2454.54	0
2454.84	0
2455.13	0
2455.43	0
2455.73	0
2456.03	0
2456.32	0
2456.62	0
2456.92	0
2457.21	0
2457.51	0
2457.81	0
2458.1	0
2458.4	0
2458.7	0
2458.99	0
2459.29	0
2459.59	0
2459.88	0
2460.18	0
2460.48	0
2460.77	0
2461.07	0
2461.37	0
2461.66	0
2461.96	0
2462.26	0
2462.55	0
2462.85	0
2463.15	0
2463.44	0
2463.74	0
2464.04	0
2464.33	0
2464.63	0
2464.92	0
2465.22	0
2465.52	0
2465.81	0
2466.11	0
2466.41	0
2466.7	0
2467	0
2467.29	0
2467.59	0
2467.89	0
2468.18	0
2468.48	0
2468.77	0
2469.07	0
2469.37	0
2469.66	0
2469.96	0
2470.25	0
2470.55	0
2470.84	0
2471.14	0
2471.44	0
2471.73	0
2472.03	0
2472.32	0
2472.62	0
2472.91	0
2473.21	0
2473.51	0
2473.8	0
2474.1	0
2474.39	0
2474.69	0
2474.98	0
2475.28	0
2475.57	0
2475.87	0
2476.17	0
2476.46	0
2476.76	0
2477.05	0
2477.35	0
2477.64	0
2477.94	0
2478.23	0
2478.53	0
2478.82	0
2479.12	0
2479.41	0
2479.71	0
2480	0
2480.3	0
2480.59	0
2480.89	0
2481.18	0
2481.48	0
2481.77	0
2482.07	0
2482.36	0
2482.66	0
2482.95	0
2483.25	0
2483.54	0
2483.84	0
2484.13	0
2484.43	0
2484.72	0
2485.02	0
2485.31	0
2485.6	0
2485.9	0
2486.19	0
2486.49	0
2486.78	0
2487.08	0
2487.37	0
2487.67	0
2487.96	0
2488.26	0
2488.55	0
2488.84	0
2489.14	0
2489.43	0
2489.73	0
2490.02	0
2490.32	0
2490.61	0
2490.9	0
2491.2	0
2491.49	0
2491.79	0
2492.08	0
2492.37	0
2492.67	0
2492.96	0
2493.26	0
2493.55	0
2493.84	0
2494.14	0
2494.43	0
2494.73	0
2495.02	0
2495.31	0
2495.61	0
2495.9	0
2496.2	0
2496.49	0
2496.78	0
2497.08	0
2497.37	0
2497.66	0
2497.96	0
2498.25	0
2498.54	0
2498.84	0
2499.13	0
2499.43	0
2499.72	0
2500.01	0
2500.31	0
2500.6	0
2500.89	0
2501.19	0
2501.48	0
2501.77	0
2502.07	0
2502.36	0
2502.65	0
2502.95	0
2503.24	0
2503.53	0
2503.82	0
2504.12	0
2504.41	0
2504.7	0
2505	0
2505.29	0
2505.58	0
2505.88	0
2506.17	0
2506.46	0
2506.76	0
2507.05	0
2507.34	0
2507.63	0
2507.93	0
2508.22	0
2508.51	0
2508.8	0
2509.1	0
2509.39	0
2509.68	0
2509.98	0
2510.27	0
2510.56	0
2510.85	0
2511.15	0
2511.44	0
2511.73	0
2512.02	0
2512.32	0
2512.61	0
2512.9	0
2513.19	0
2513.49	0
2513.78	0
2514.07	0
2514.36	0
2514.65	0
2514.95	0
2515.24	0
2515.53	0
2515.82	0
2516.12	0
2516.41	0
2516.7	0
2516.99	0
2517.28	0
2517.58	0
2517.87	0
2518.16	0
2518.45	0
2518.74	0
2519.04	0
2519.33	0
2519.62	0
2519.91	0
2520.2	0
2520.5	0
2520.79	0
2521.08	0
2521.37	0
2521.66	0
2521.95	0
2522.25	0
2522.54	0
2522.83	0
2523.12	0
2523.41	0
2523.7	0
2523.99	0
2524.29	0
2524.58	0
2524.87	0
2525.16	0
2525.45	0
2525.74	0
2526.03	0
2526.33	0
2526.62	0
2526.91	0
2527.2	0
2527.49	0
2527.78	0
2528.07	0
2528.36	0
2528.66	0
2528.95	0
2529.24	0
2529.53	0
2529.82	0
2530.11	0
2530.4	0
2530.69	0
2530.98	0
2531.27	0
2531.57	0
2531.86	0
2532.15	0
2532.44	0
2532.73	0
2533.02	0
2533.31	0
2533.6	0
2533.89	0
2534.18	0
2534.47	0
2534.76	0
2535.05	0
2535.35	0
2535.64	0
2535.93	0
2536.22	0
2536.51	0
2536.8	0
2537.09	0
2537.38	0
2537.67	0
2537.96	0
2538.25	0
2538.54	0
2538.83	0
2539.12	0
2539.41	0
2539.7	0
2539.99	0
2540.28	0
2540.57	0
2540.86	0
2541.15	0
2541.44	0
2541.73	0
2542.02	0
2542.31	0
2542.6	0
2542.89	0
2543.18	0
2543.47	0
2543.76	0
2544.05	0
2544.34	0
2544.63	0
2544.92	0
2545.21	0
2545.5	0
2545.79	0
2546.08	0
2546.37	0
2546.66	0
2546.95	0
2547.24	0
2547.53	0
2547.82	0
2548.11	0
2548.4	0
2548.69	0
2548.98	0
2549.27	0
2549.55	0
2549.84	0
2550.13	0
2550.42	0
2550.71	0
2551	0
2551.29	0
2551.58	0
2551.87	0
2552.16	0
2552.45	0
2552.74	0
2553.03	0
2553.31	0
2553.6	0
2553.89	0
2554.18	0
2554.47	0
2554.76	0
2555.05	0
2555.34	0
2555.63	0
2555.92	0
2556.2	0
2556.49	0
2556.78	0
2557.07	0
2557.36	0
2557.65	0
2557.94	0
2558.23	0
2558.51	0
2558.8	0
2559.09	0
2559.38	0
2559.67	0
2559.96	0
2560.25	0
2560.53	0
2560.82	0
2561.11	0
2561.4	0
2561.69	0
2561.98	0
2562.27	0
2562.55	0
2562.84	0
2563.13	0
2563.42	0
2563.71	0
2564	0
2564.28	0
2564.57	0
2564.86	0
2565.15	0
2565.44	0
2565.72	0
2566.01	0
2566.3	0
2566.59	0
2566.88	0
2567.16	0
2567.45	0
2567.74	0
2568.03	0
2568.32	0
2568.6	0
2568.89	0
2569.18	0
2569.47	0
2569.75	0

