Source: Spectrum Viewer

Chart: Pulse Spectrum

Series: 
Wavelength (nm)	S (a.u.)
1179.9	0
1180.29	0
1180.68	0
1181.06	0
1181.45	0
1181.83	0
1182.22	0
1182.6	0
1182.99	0
1183.38	0
1183.76	0
1184.15	0
1184.53	0
1184.92	0
1185.3	0
1185.69	0
1186.07	0
1186.46	0
1186.85	0
1187.23	0
1187.62	0
1188	0
1188.39	0
1188.77	0
1189.16	0
1189.54	0
1189.93	0
1190.31	0
1190.7	0
1191.08	0
1191.47	0
1191.85	0
1192.24	0
1192.62	0
1193.01	0
1193.39	0
1193.78	0
1194.16	0
1194.55	0
1194.93	0
1195.32	0
1195.7	0
1196.09	0
1196.47	0
1196.86	0
1197.24	0
1197.63	0
1198.01	0
1198.4	0
1198.78	0
1199.16	0
1199.55	0
1199.93	0
1200.32	0
1200.7	0
1201.09	0
1201.47	0
1201.86	0
1202.24	0
1202.63	0
1203.01	0
1203.39	0
1203.78	0
1204.16	0
1204.55	0
1204.93	0
1205.32	0
1205.7	0
1206.08	0
1206.47	0
1206.85	0
1207.24	0
1207.62	0
1208	0
1208.39	0
1208.77	0
1209.16	0
1209.54	0
1209.92	0
1210.31	0
1210.69	0
1211.08	0
1211.46	0
1211.84	0
1212.23	0
1212.61	0
1213	0
1213.38	0
1213.76	0
1214.15	0
1214.53	0
1214.91	0
1215.3	0
1215.68	0
1216.06	0
1216.45	0
1216.83	0
1217.22	0
1217.6	0
1217.98	0
1218.37	0
1218.75	0
1219.13	0
1219.52	0
1219.9	0
1220.28	0
1220.67	0
1221.05	0
1221.43	0
1221.82	0
1222.2	0
1222.58	0
1222.97	0
1223.35	0
1223.73	0
1224.11	0
1224.5	0
1224.88	0
1225.26	0
1225.65	0
1226.03	0
1226.41	0
1226.8	0
1227.18	0
1227.56	0
1227.94	0
1228.33	0
1228.71	0
1229.09	0
1229.47	0
1229.86	0
1230.24	0
1230.62	0
1231.01	0
1231.39	0
1231.77	0
1232.15	0
1232.54	0
1232.92	0
1233.3	0
1233.68	0
1234.07	0
1234.45	0
1234.83	0
1235.21	0
1235.6	0
1235.98	0
1236.36	0
1236.74	0
1237.12	0
1237.51	0
1237.89	0
1238.27	0
1238.65	0
1239.04	0
1239.42	0
1239.8	0
1240.18	0
1240.56	0
1240.95	0
1241.33	0
1241.71	0
1242.09	0
1242.47	0
1242.86	0
1243.24	0
1243.62	0
1244	0
1244.38	0
1244.77	0
1245.15	0
1245.53	0
1245.91	0
1246.29	0
1246.67	0
1247.06	0
1247.44	0
1247.82	0
1248.2	0
1248.58	0
1248.96	0
1249.34	0
1249.73	0
1250.11	0
1250.49	0
1250.87	0
1251.25	0
1251.63	0
1252.01	0
1252.4	0
1252.78	0
1253.16	0
1253.54	0
1253.92	0
1254.3	0
1254.68	0
1255.06	0
1255.45	0
1255.83	0
1256.21	0
1256.59	0
1256.97	0
1257.35	0
1257.73	0
1258.11	0
1258.49	0
1258.87	0
1259.26	0
1259.64	0
1260.02	0
1260.4	0
1260.78	0
1261.16	0
1261.54	0
1261.92	0
1262.3	0
1262.68	0
1263.06	0
1263.44	0
1263.82	0
1264.21	0
1264.59	0
1264.97	0
1265.35	0
1265.73	0
1266.11	0
1266.49	0
1266.87	0
1267.25	0
1267.63	0
1268.01	0
1268.39	0
1268.77	0
1269.15	0
1269.53	0
1269.91	0
1270.29	0
1270.67	0
1271.05	0
1271.43	0
1271.81	0
1272.19	0
1272.57	0
1272.95	0
1273.33	0
1273.71	0
1274.09	0
1274.47	0
1274.85	0
1275.23	0
1275.61	0
1275.99	0
1276.37	0
1276.75	0
1277.13	0
1277.51	0
1277.89	0
1278.27	0
1278.65	0
1279.03	0
1279.41	0
1279.79	0
1280.17	0
1280.55	0
1280.93	0
1281.31	0
1281.69	0
1282.07	0
1282.45	0
1282.82	0
1283.2	0
1283.58	0
1283.96	0
1284.34	0
1284.72	0
1285.1	0
1285.48	0
1285.86	0
1286.24	0
1286.62	0
1287	0
1287.38	0
1287.75	0
1288.13	0
1288.51	0
1288.89	0
1289.27	0
1289.65	0
1290.03	0
1290.41	0
1290.79	0
1291.17	0
1291.54	0
1291.92	0
1292.3	0
1292.68	0
1293.06	0
1293.44	0
1293.82	0
1294.2	0
1294.57	0
1294.95	0
1295.33	0
1295.71	0
1296.09	0
1296.47	0
1296.85	0
1297.22	0
1297.6	0
1297.98	0
1298.36	0
1298.74	0
1299.12	0
1299.5	0
1299.87	0
1300.25	0
1300.63	0
1301.01	0
1301.39	0
1301.77	0
1302.14	0
1302.52	0
1302.9	0
1303.28	0
1303.66	0
1304.03	0
1304.41	0
1304.79	0
1305.17	0
1305.55	0
1305.92	0
1306.3	0
1306.68	0
1307.06	0
1307.44	0
1307.81	0
1308.19	0
1308.57	0
1308.95	0
1309.32	0
1309.7	0
1310.08	0
1310.46	0
1310.84	0
1311.21	0
1311.59	0
1311.97	0
1312.35	0
1312.72	0
1313.1	0
1313.48	0
1313.86	0
1314.23	0
1314.61	0
1314.99	0
1315.37	0
1315.74	0
1316.12	0
1316.5	0
1316.87	0
1317.25	0
1317.63	0
1318.01	0
1318.38	0
1318.76	0
1319.14	0
1319.52	0
1319.89	0
1320.27	0
1320.65	0
1321.02	0
1321.4	0
1321.78	0
1322.15	0
1322.53	0
1322.91	0
1323.29	0
1323.66	0
1324.04	0
1324.42	0
1324.79	0
1325.17	0
1325.55	0
1325.92	0
1326.3	0
1326.68	0
1327.05	0
1327.43	0
1327.81	0
1328.18	0
1328.56	0
1328.94	0
1329.31	0
1329.69	0
1330.06	0
1330.44	0
1330.82	0
1331.19	0
1331.57	0
1331.95	0
1332.32	0
1332.7	0
1333.08	0
1333.45	0
1333.83	0
1334.2	0
1334.58	0
1334.96	0
1335.33	0
1335.71	0
1336.08	0
1336.46	0
1336.84	0
1337.21	0
1337.59	0
1337.96	0
1338.34	0
1338.72	0
1339.09	0
1339.47	0
1339.84	0
1340.22	0
1340.6	0
1340.97	0
1341.35	0
1341.72	0
1342.1	0
1342.47	0
1342.85	0
1343.23	0
1343.6	0
1343.98	0
1344.35	0
1344.73	0
1345.1	0
1345.48	0
1345.85	0
1346.23	0
1346.61	0
1346.98	0
1347.36	0
1347.73	0
1348.11	0
1348.48	0
1348.86	0
1349.23	0
1349.61	0
1349.98	0
1350.36	0
1350.73	0
1351.11	0
1351.48	0
1351.86	0
1352.23	0
1352.61	0
1352.98	0
1353.36	0
1353.73	0
1354.11	0
1354.48	0
1354.86	0
1355.23	0
1355.61	0
1355.98	0
1356.36	0
1356.73	0
1357.11	0
1357.48	0
1357.86	0
1358.23	0
1358.61	0
1358.98	0
1359.35	0
1359.73	0
1360.1	0
1360.48	0
1360.85	0
1361.23	0
1361.6	0
1361.98	0
1362.35	0
1362.72	0
1363.1	0
1363.47	0
1363.85	0
1364.22	0
1364.6	0
1364.97	0
1365.34	0
1365.72	0
1366.09	0
1366.47	0
1366.84	0
1367.22	0
1367.59	0
1367.96	0
1368.34	0
1368.71	0
1369.09	0.16
1369.46	-0.84
1369.83	-0.68
1370.21	-0.68
1370.58	-0.56
1370.96	-0.48
1371.33	0.92
1371.7	1.04
1372.08	1.04
1372.45	1.36
1372.82	1.28
1373.2	0.88
1373.57	1
1373.95	1
1374.32	0.56
1374.69	0.76
1375.07	0.76
1375.44	0.36
1375.81	0.72
1376.19	0.72
1376.56	0.48
1376.93	0.6
1377.31	0.6
1377.68	0.24
1378.05	0.48
1378.43	0.6
1378.8	0.48
1379.17	0.48
1379.55	0.48
1379.92	0.28
1380.29	0.44
1380.67	0.88
1381.04	0.88
1381.41	0.88
1381.79	0.84
1382.16	0.6
1382.53	0.64
1382.91	-0.24
1383.28	-0.24
1383.65	-0.16
1384.03	-0.12
1384.4	-0.56
1384.77	0.32
1385.14	0.64
1385.52	0.56
1385.89	0.8
1386.26	0.96
1386.64	1.24
1387.01	1.16
1387.38	1.28
1387.75	0.84
1388.13	0.88
1388.5	0.76
1388.87	0.56
1389.25	0.6
1389.62	0.4
1389.99	-0.04
1390.36	0.2
1390.74	0.32
1391.11	0.4
1391.48	0.76
1391.85	1
1392.23	0.72
1392.6	0.72
1392.97	0.48
1393.34	0.48
1393.72	0.6
1394.09	0.56
1394.46	0.64
1394.83	0.88
1395.21	0.72
1395.58	0.72
1395.95	0.84
1396.32	0.76
1396.69	0.6
1397.07	0.76
1397.44	0.64
1397.81	0.64
1398.18	0.68
1398.55	0.6
1398.93	0.52
1399.3	0.92
1399.67	1.2
1400.04	1
1400.41	1.08
1400.79	1.08
1401.16	0.64
1401.53	0.28
1401.9	1.2
1402.27	1.36
1402.65	1.36
1403.02	1.44
1403.39	1.48
1403.76	0.36
1404.13	0.24
1404.51	0.16
1404.88	0.16
1405.25	0.2
1405.62	0.4
1405.99	0.48
1406.36	0.64
1406.74	0.8
1407.11	0.68
1407.48	0.88
1407.85	-0.4
1408.22	-0.56
1408.59	-0.64
1408.96	-0.68
1409.34	-0.36
1409.71	0.72
1410.08	0.8
1410.45	0.64
1410.82	0.6
1411.19	0.08
1411.56	0.36
1411.93	0.36
1412.31	0.68
1412.68	0.68
1413.05	0.68
1413.42	0.52
1413.79	0.56
1414.16	0.04
1414.53	0.28
1414.9	0.08
1415.27	0.2
1415.65	0.2
1416.02	0.52
1416.39	0.4
1416.76	0.6
1417.13	0.36
1417.5	0.4
1417.87	0.36
1418.24	0.6
1418.61	0.88
1418.98	0.92
1419.35	0.96
1419.73	1.2
1420.1	0.84
1420.47	0.56
1420.84	0.64
1421.21	0.44
1421.58	0.2
1421.95	0.48
1422.32	0.6
1422.69	0.56
1423.06	0.8
1423.43	1.16
1423.8	1.08
1424.17	1.32
1424.54	1.28
1424.91	1.04
1425.28	0.68
1425.65	0.92
1426.02	1.16
1426.39	1.28
1426.76	0.92
1427.14	1.08
1427.51	0.88
1427.88	0.4
1428.25	0.28
1428.62	0.64
1428.99	0.52
1429.36	0.32
1429.73	0.48
1430.1	0.52
1430.47	0.68
1430.84	1.04
1431.21	1
1431.58	0.72
1431.95	0.72
1432.32	0.72
1432.69	0.32
1433.06	0.4
1433.43	0.6
1433.8	0.52
1434.17	0.36
1434.54	0.36
1434.91	0.52
1435.28	0.36
1435.64	0.36
1436.01	-0.24
1436.38	-0.08
1436.75	-0.28
1437.12	-0.16
1437.49	0.12
1437.86	0.72
1438.23	0.84
1438.6	0.88
1438.97	0.76
1439.34	0.84
1439.71	1.16
1440.08	0.8
1440.45	1.16
1440.82	0.6
1441.19	0.36
1441.56	0.04
1441.93	0.04
1442.3	0.12
1442.67	-0.84
1443.03	-0.84
1443.4	-0.84
1443.77	-0.84
1444.14	-1.36
1444.51	0.12
1444.88	0.24
1445.25	0.44
1445.62	1.12
1445.99	1.12
1446.36	1.16
1446.73	1.32
1447.09	1.12
1447.46	0.84
1447.83	0.84
1448.2	1.16
1448.57	0.8
1448.94	0.8
1449.31	0.4
1449.68	0.56
1450.05	0.2
1450.41	0.16
1450.78	-0.12
1451.15	0.04
1451.52	-0.12
1451.89	-0.04
1452.26	-0.04
1452.63	0.24
1453	0.44
1453.36	1.04
1453.73	1.12
1454.1	1.32
1454.47	1.8
1454.84	1.44
1455.21	0.88
1455.57	0.32
1455.94	0.28
1456.31	0.24
1456.68	0.72
1457.05	0.68
1457.42	1.28
1457.78	1.12
1458.15	0.88
1458.52	0.4
1458.89	0.52
1459.26	0.32
1459.63	0.48
1459.99	0.28
1460.36	0.32
1460.73	1.04
1461.1	1.56
1461.47	1.84
1461.83	2
1462.2	2.2
1462.57	1.76
1462.94	1.36
1463.31	0.96
1463.67	1.4
1464.04	1.16
1464.41	1.24
1464.78	0.68
1465.15	0.68
1465.51	0.4
1465.88	0.4
1466.25	0.08
1466.62	0.52
1466.98	0.76
1467.35	0.72
1467.72	0.8
1468.09	0.72
1468.46	0.84
1468.82	0.68
1469.19	0.88
1469.56	1.12
1469.93	1.12
1470.29	1.12
1470.66	1
1471.03	0.56
1471.4	0.24
1471.76	0.56
1472.13	0.92
1472.5	0.96
1472.86	0.92
1473.23	0.92
1473.6	0.88
1473.97	0.72
1474.33	0.68
1474.7	0.8
1475.07	0.8
1475.44	0.96
1475.8	0.68
1476.17	0.76
1476.54	0.96
1476.9	0.96
1477.27	0.44
1477.64	0.4
1478	0.44
1478.37	0.12
1478.74	0.12
1479.11	0.48
1479.47	0.48
1479.84	0.4
1480.21	0.68
1480.57	0.68
1480.94	0.32
1481.31	0.4
1481.67	0.76
1482.04	0.84
1482.41	0.92
1482.77	0.92
1483.14	1.08
1483.51	0.68
1483.87	0.48
1484.24	0.68
1484.61	0.92
1484.97	0.72
1485.34	1.36
1485.71	0.24
1486.07	-0.04
1486.44	0.12
1486.81	0.72
1487.17	0.64
1487.54	1.6
1487.9	1.8
1488.27	1.4
1488.64	0.88
1489	0.56
1489.37	0.68
1489.74	0.72
1490.1	1.04
1490.47	1
1490.83	0.92
1491.2	0.84
1491.57	0.72
1491.93	0.4
1492.3	0.48
1492.66	0.32
1493.03	0.44
1493.4	0.48
1493.76	0.76
1494.13	0.6
1494.49	0.68
1494.86	0.56
1495.23	0.48
1495.59	0.48
1495.96	-0.84
1496.32	-0.6
1496.69	-0.64
1497.06	-0.72
1497.42	-1.76
1497.79	-0.2
1498.15	-0.36
1498.52	-0.28
1498.88	-0.28
1499.25	0.6
1499.62	0.48
1499.98	0.64
1500.35	0.6
1500.71	0.72
1501.08	1.24
1501.44	1.28
1501.81	1.2
1502.17	1.64
1502.54	1.52
1502.9	0.96
1503.27	1.04
1503.64	0.8
1504	0.72
1504.37	1
1504.73	1.2
1505.1	1.16
1505.46	1.16
1505.83	1.32
1506.19	1.2
1506.56	1.08
1506.92	1.04
1507.29	1.44
1507.65	0.88
1508.02	0.88
1508.38	0.88
1508.75	1.04
1509.11	0.96
1509.48	1.32
1509.84	1.36
1510.21	1.32
1510.57	1.36
1510.94	1.2
1511.3	1.04
1511.67	1.08
1512.03	1.28
1512.4	1
1512.76	1.04
1513.13	-0.04
1513.49	-0.28
1513.85	-0.36
1514.22	-0.44
1514.58	-0.32
1514.95	0.72
1515.31	0.72
1515.68	0.48
1516.04	0.92
1516.41	0.84
1516.77	0.68
1517.14	0.68
1517.5	1.12
1517.86	0.68
1518.23	0.52
1518.59	0.68
1518.96	1.52
1519.32	1.16
1519.69	1.32
1520.05	1.52
1520.41	1.36
1520.78	0.68
1521.14	0.88
1521.51	1
1521.87	0.84
1522.24	1.2
1522.6	1.04
1522.96	0.96
1523.33	0.68
1523.69	0.56
1524.06	0.4
1524.42	0.72
1524.78	0.72
1525.15	0.88
1525.51	0.88
1525.88	0.72
1526.24	0.52
1526.6	0.36
1526.97	0.2
1527.33	0.2
1527.69	0.28
1528.06	0.24
1528.42	0.2
1528.79	0.24
1529.15	-0.4
1529.51	0.24
1529.88	0.64
1530.24	0.84
1530.6	0.92
1530.97	1.56
1531.33	0.8
1531.69	0.56
1532.06	0.56
1532.42	0.44
1532.78	0.56
1533.15	0.56
1533.51	0.32
1533.87	0.28
1534.24	0.72
1534.6	0.6
1534.96	1
1535.33	1.16
1535.69	1.36
1536.05	0.92
1536.42	0.96
1536.78	0.6
1537.14	0.76
1537.51	0.76
1537.87	0.76
1538.23	0.96
1538.6	1.04
1538.96	0.72
1539.32	0.36
1539.68	0.36
1540.05	0.2
1540.41	0.24
1540.77	0.36
1541.14	0.68
1541.5	0.84
1541.86	0.96
1542.23	1
1542.59	1
1542.95	0.68
1543.31	0.88
1543.68	0.88
1544.04	0.92
1544.4	0.8
1544.76	0.8
1545.13	0.48
1545.49	0.44
1545.85	0.2
1546.21	0.68
1546.58	0.68
1546.94	1.12
1547.3	0.96
1547.66	1.2
1548.03	0.72
1548.39	0.88
1548.75	0.56
1549.11	0.68
1549.48	0.56
1549.84	0.56
1550.2	0.76
1550.56	0.72
1550.93	0.68
1551.29	0.64
1551.65	0.8
1552.01	0.76
1552.37	0.8
1552.74	0.72
1553.1	0.64
1553.46	0.8
1553.82	0.52
1554.18	0.36
1554.55	0.36
1554.91	0.36
1555.27	0.08
1555.63	0.04
1555.99	0.04
1556.36	0.32
1556.72	-1.28
1557.08	-1.2
1557.44	-1.12
1557.8	-1
1558.17	-1.16
1558.53	0.8
1558.89	0.68
1559.25	1.04
1559.61	1.04
1559.97	0.92
1560.34	0.72
1560.7	0.92
1561.06	0.72
1561.42	0.8
1561.78	0.8
1562.14	0.24
1562.5	0.12
1562.87	0.08
1563.23	0.16
1563.59	-0.2
1563.95	0.24
1564.31	0.24
1564.67	0.44
1565.03	0.24
1565.4	0.6
1565.76	0.88
1566.12	0.92
1566.48	0.72
1566.84	1
1567.2	1
1567.56	0.64
1567.92	0.56
1568.29	0.56
1568.65	0.2
1569.01	0.24
1569.37	-0.12
1569.73	-0.16
1570.09	-0.24
1570.45	-0.24
1570.81	-0.24
1571.17	0.16
1571.53	0.56
1571.89	0.92
1572.26	1.08
1572.62	1.12
1572.98	1.44
1573.34	1.08
1573.7	0.68
1574.06	0.52
1574.42	0.72
1574.78	0.8
1575.14	0.76
1575.5	0.84
1575.86	0.12
1576.22	0.04
1576.58	-0.12
1576.94	-0.12
1577.3	-0.28
1577.67	0.68
1578.03	0.48
1578.39	0.6
1578.75	0.72
1579.11	0.8
1579.47	0.72
1579.83	1.04
1580.19	0.8
1580.55	0.84
1580.91	0.76
1581.27	0.72
1581.63	0.52
1581.99	0.48
1582.35	0.44
1582.71	0.44
1583.07	0.32
1583.43	0.92
1583.79	0.84
1584.15	1.04
1584.51	1.04
1584.87	1.04
1585.23	0.44
1585.59	0.96
1585.95	1
1586.31	1.2
1586.67	1.24
1587.03	1.24
1587.39	0.72
1587.75	0.88
1588.11	1
1588.47	1.16
1588.83	1.04
1589.19	1.12
1589.55	0.68
1589.91	0.4
1590.27	0.28
1590.63	0.48
1590.99	0.44
1591.35	0.44
1591.71	0.56
1592.07	0.84
1592.42	0.84
1592.78	0.8
1593.14	1
1593.5	0.88
1593.86	0.52
1594.22	0.32
1594.58	0.32
1594.94	0.24
1595.3	0.24
1595.66	0.4
1596.02	0.76
1596.38	0.92
1596.74	1.12
1597.1	1.44
1597.46	1.28
1597.81	0.96
1598.17	0.88
1598.53	0.76
1598.89	0.44
1599.25	0.44
1599.61	0.48
1599.97	0.44
1600.33	0.36
1600.69	0.32
1601.05	0.32
1601.4	0.24
1601.76	0
1602.12	-0.16
1602.48	-0.08
1602.84	-0.08
1603.2	-0.08
1603.56	0.16
1603.92	0.72
1604.28	0.72
1604.63	1.08
1604.99	1.32
1605.35	1.64
1605.71	1.04
1606.07	1.32
1606.43	1.16
1606.79	1.28
1607.14	1.12
1607.5	1.36
1607.86	1
1608.22	0.96
1608.58	0.84
1608.94	0.8
1609.29	0.92
1609.65	1.36
1610.01	1.24
1610.37	1
1610.73	0.92
1611.09	0.84
1611.44	0.4
1611.8	0.6
1612.16	1.04
1612.52	1.28
1612.88	1.2
1613.24	1.56
1613.59	1.32
1613.95	1
1614.31	0.88
1614.67	0.68
1615.03	0.32
1615.38	0.52
1615.74	0.48
1616.1	0.32
1616.46	0.56
1616.82	0.84
1617.17	0.92
1617.53	0.92
1617.89	1.36
1618.25	1.8
1618.6	1.56
1618.96	1.4
1619.32	1.96
1619.68	1.52
1620.04	1.16
1620.39	1.32
1620.75	1.2
1621.11	0.68
1621.47	0.84
1621.82	0.6
1622.18	0.6
1622.54	0.72
1622.9	0.72
1623.25	-0.4
1623.61	-0.32
1623.97	-0.24
1624.33	-0.32
1624.68	-0.44
1625.04	1
1625.4	0.84
1625.75	-0.04
1626.11	-0.08
1626.47	-6.66107e-18
1626.83	-8.21825e-17
1627.18	0.16
1627.54	0.92
1627.9	1.08
1628.26	1.04
1628.61	0.8
1628.97	0.64
1629.33	0.48
1629.68	0.44
1630.04	0.4
1630.4	-0.36
1630.75	-0.36
1631.11	-0.36
1631.47	-0.44
1631.83	-0.24
1632.18	0.44
1632.54	0.52
1632.9	1.04
1633.25	1
1633.61	1.12
1633.97	1.04
1634.32	0.96
1634.68	0.44
1635.04	0.56
1635.39	0.44
1635.75	0.52
1636.11	0.56
1636.46	0.72
1636.82	1.2
1637.18	1.4
1637.53	1.2
1637.89	1.48
1638.25	1.32
1638.6	1.08
1638.96	0.68
1639.31	0.72
1639.67	0.4
1640.03	0.48
1640.38	0.12
1640.74	0.12
1641.1	0.32
1641.45	0.76
1641.81	1.04
1642.16	1.4
1642.52	1.48
1642.88	1.24
1643.23	0.84
1643.59	0.88
1643.95	0.6
1644.3	0.52
1644.66	0.56
1645.01	0.64
1645.37	0.24
1645.73	0.16
1646.08	0.16
1646.44	0.24
1646.79	-0.4
1647.15	-0.4
1647.51	-0.32
1647.86	-0.28
1648.22	-0.36
1648.57	-0.64
1648.93	-0.36
1649.28	-0.28
1649.64	-0.28
1650	-0.32
1650.35	0.84
1650.71	0.56
1651.06	0.4
1651.42	0.56
1651.77	0.96
1652.13	0.6
1652.48	0.76
1652.84	0.76
1653.2	0.56
1653.55	0.16
1653.91	0.16
1654.26	0.28
1654.62	0.44
1654.97	0.6
1655.33	0.64
1655.68	0.88
1656.04	0.76
1656.39	1.04
1656.75	0.88
1657.1	0.84
1657.46	0.88
1657.81	0.72
1658.17	0.4
1658.52	0.68
1658.88	1.16
1659.23	0.92
1659.59	0.92
1659.94	0.92
1660.3	0.8
1660.65	0.32
1661.01	0.28
1661.36	0.32
1661.72	0.28
1662.07	0.24
1662.43	0.24
1662.78	0.24
1663.14	0.2
1663.49	0.12
1663.85	0.2
1664.2	0.4
1664.56	0.56
1664.91	-1.24
1665.27	-1
1665.62	-1.2
1665.98	-1.4
1666.33	-1.56
1666.69	0.48
1667.04	0.36
1667.39	0.6
1667.75	1.04
1668.1	1.6
1668.46	1.36
1668.81	1.48
1669.17	1.52
1669.52	1.2
1669.88	0.96
1670.23	0.96
1670.58	0.76
1670.94	0.72
1671.29	0.6
1671.65	0.36
1672	0.6
1672.36	0.84
1672.71	0.6
1673.06	0.8
1673.42	0.72
1673.77	0.6
1674.13	1.12
1674.48	1.12
1674.83	1.08
1675.19	1.12
1675.54	1.2
1675.9	0.76
1676.25	0.8
1676.6	0.64
1676.96	0.76
1677.31	0.6
1677.67	0.52
1678.02	0.56
1678.37	0.6
1678.73	0.6
1679.08	0.6
1679.43	0.4
1679.79	0.92
1680.14	1.16
1680.5	0.8
1680.85	0.84
1681.2	0.92
1681.56	0.72
1681.91	0.44
1682.26	0.72
1682.62	0.76
1682.97	0.88
1683.32	0.52
1683.68	0.72
1684.03	0.72
1684.38	0.6
1684.74	0.96
1685.09	1.04
1685.44	0.92
1685.8	0.92
1686.15	1.32
1686.5	0.68
1686.86	0.8
1687.21	1.2
1687.56	1.12
1687.92	1.08
1688.27	1.24
1688.62	1.04
1688.98	0.56
1689.33	0.64
1689.68	0.44
1690.03	1.12
1690.39	1.16
1690.74	1.48
1691.09	1.68
1691.45	1.12
1691.8	0.76
1692.15	1.08
1692.5	0.88
1692.86	0.6
1693.21	1.12
1693.56	0.92
1693.92	0.8
1694.27	0.08
1694.62	0.08
1694.97	0.44
1695.33	0.48
1695.68	0.24
1696.03	0.84
1696.38	0.96
1696.74	1.12
1697.09	1.04
1697.44	1.32
1697.79	1.44
1698.15	1.4
1698.5	1.16
1698.85	0.92
1699.2	0.04
1699.56	0.48
1699.91	0.76
1700.26	0.36
1700.61	0.36
1700.97	0.92
1701.32	0.44
1701.67	0.4
1702.02	0.4
1702.37	0.4
1702.73	0.6
1703.08	0.6
1703.43	0.6
1703.78	0.76
1704.13	1.04
1704.49	1.12
1704.84	1.28
1705.19	1
1705.54	1
1705.89	1.04
1706.25	0.92
1706.6	0.68
1706.95	0.96
1707.3	0.8
1707.65	0.52
1708.01	0.76
1708.36	0.88
1708.71	0.92
1709.06	0.92
1709.41	1.04
1709.76	0.96
1710.12	1.64
1710.47	1.32
1710.82	1.48
1711.17	1.44
1711.52	1.4
1711.87	0.6
1712.23	0.64
1712.58	0.52
1712.93	0.44
1713.28	0.8
1713.63	0.96
1713.98	1.04
1714.33	1.24
1714.69	1.24
1715.04	0.6
1715.39	0.6
1715.74	0.8
1716.09	0.6
1716.44	0.64
1716.79	1.12
1717.14	1.24
1717.5	1.24
1717.85	1.4
1718.2	1.4
1718.55	1
1718.9	0.96
1719.25	0.8
1719.6	0.72
1719.95	0.8
1720.3	0.72
1720.65	0.68
1721.01	0.48
1721.36	0.44
1721.71	0.36
1722.06	-0.04
1722.41	-0.32
1722.76	-0.12
1723.11	0.08
1723.46	-2.88669e-17
1723.81	0.48
1724.16	0.76
1724.51	0.76
1724.86	0.76
1725.21	0.76
1725.56	0.76
1725.92	1.2
1726.27	1
1726.62	0.88
1726.97	0.88
1727.32	0.6
1727.67	-0.04
1728.02	-0.04
1728.37	-0.2
1728.72	-0.2
1729.07	0.04
1729.42	0.04
1729.77	0.12
1730.12	0.24
1730.47	0.56
1730.82	0.8
1731.17	1
1731.52	1.44
1731.87	1.52
1732.22	1.24
1732.57	1.4
1732.92	1.2
1733.27	0.8
1733.62	0.76
1733.97	1.48
1734.32	1.08
1734.67	1.08
1735.02	0.88
1735.37	1
1735.72	0.72
1736.07	0.68
1736.42	0.68
1736.77	0.76
1737.12	0.96
1737.47	0.48
1737.82	1.04
1738.17	1.4
1738.52	1.4
1738.87	0.92
1739.22	1.24
1739.57	0.8
1739.92	0.92
1740.27	0.92
1740.62	1.36
1740.97	1.12
1741.32	1.16
1741.67	0.68
1742.02	0.68
1742.37	0.4
1742.72	0.4
1743.06	0.28
1743.41	0.36
1743.76	0.76
1744.11	-0.28
1744.46	0.08
1744.81	0.2
1745.16	0.48
1745.51	0.56
1745.86	1.56
1746.21	1.28
1746.56	1.16
1746.91	0.8
1747.26	0.32
1747.6	0.6
1747.95	0.44
1748.3	1.04
1748.65	1.2
1749	1.36
1749.35	1.36
1749.7	1.56
1750.05	1.16
1750.4	1.12
1750.75	0.96
1751.09	0.64
1751.44	1.08
1751.79	0.44
1752.14	0.32
1752.49	0.4
1752.84	0.4
1753.19	-0.16
1753.54	0.36
1753.88	0.64
1754.23	0.56
1754.58	0.84
1754.93	1.36
1755.28	1.24
1755.63	1.04
1755.98	1.4
1756.32	1.96
1756.67	1.6
1757.02	1.68
1757.37	1.88
1757.72	1.88
1758.07	1.04
1758.42	0.84
1758.76	1.24
1759.11	0.6
1759.46	0.56
1759.81	0.8
1760.16	1.12
1760.5	0.8
1760.85	1.28
1761.2	0.96
1761.55	1.08
1761.9	0.8
1762.25	1.08
1762.59	1.28
1762.94	1.48
1763.29	1.04
1763.64	0.96
1763.99	0.72
1764.33	0.44
1764.68	0.52
1765.03	0.52
1765.38	0.72
1765.73	0.76
1766.07	1.04
1766.42	0.84
1766.77	0.92
1767.12	1.32
1767.46	1.08
1767.81	1.2
1768.16	1.16
1768.51	1.36
1768.85	0.88
1769.2	1.04
1769.55	0.6
1769.9	0.8
1770.25	0.72
1770.59	1.36
1770.94	1.36
1771.29	1.56
1771.64	1.4
1771.98	1.24
1772.33	0.48
1772.68	0.36
1773.02	0.44
1773.37	0.4
1773.72	0.6
1774.07	0.64
1774.41	1.04
1774.76	0.88
1775.11	1.04
1775.46	0.92
1775.8	0.88
1776.15	0.48
1776.5	0.64
1776.84	0.48
1777.19	0.6
1777.54	0.6
1777.89	0.56
1778.23	0.44
1778.58	0.48
1778.93	0.4
1779.27	0.56
1779.62	0.6
1779.97	0.52
1780.31	0.44
1780.66	0.4
1781.01	0.24
1781.35	0.28
1781.7	0.4
1782.05	0.44
1782.39	0.84
1782.74	1
1783.09	1.08
1783.43	1
1783.78	1
1784.13	0.48
1784.47	-0.08
1784.82	-0.16
1785.17	0.04
1785.51	0.36
1785.86	0.68
1786.21	1.24
1786.55	1.8
1786.9	1.52
1787.25	1.24
1787.59	1.2
1787.94	1.04
1788.29	0.4
1788.63	0.48
1788.98	0.44
1789.32	0.56
1789.67	0.56
1790.02	0.64
1790.36	0.64
1790.71	0.64
1791.06	0.24
1791.4	0.24
1791.75	0.16
1792.09	0.12
1792.44	0.04
1792.79	-1.48
1793.13	-1.44
1793.48	-1.44
1793.82	-1.2
1794.17	-2.96
1794.52	-1.2
1794.86	-1
1795.21	-0.4
1795.55	-0.36
1795.9	1.16
1796.24	1.24
1796.59	1.16
1796.94	1.04
1797.28	0.72
1797.63	1.2
1797.97	1.08
1798.32	0.96
1798.66	0.52
1799.01	1.04
1799.36	1.12
1799.7	0.92
1800.05	1.12
1800.39	1.44
1800.74	1
1801.08	1.24
1801.43	1.28
1801.77	1.16
1802.12	1
1802.46	1
1802.81	0.48
1803.15	0.44
1803.5	0.36
1803.85	0.72
1804.19	0.76
1804.54	0.84
1804.88	1
1805.23	1.24
1805.57	1.24
1805.92	1.52
1806.26	1.56
1806.61	1.6
1806.95	1.4
1807.3	0.96
1807.64	0.72
1807.99	0.6
1808.33	0.6
1808.68	0.64
1809.02	0.6
1809.37	1.04
1809.71	1.24
1810.06	1.36
1810.4	2.16
1810.75	2.68
1811.09	2.2
1811.43	2.32
1811.78	2.56
1812.12	1.04
1812.47	0.76
1812.81	1
1813.16	1.2
1813.5	0.84
1813.85	1.6
1814.19	1.28
1814.54	1.16
1814.88	1.84
1815.23	1.84
1815.57	2
1815.91	2.04
1816.26	2.16
1816.6	1.28
1816.95	1.72
1817.29	1.56
1817.64	1.56
1817.98	-0.04
1818.32	-0.16
1818.67	-0.72
1819.01	-0.24
1819.36	-0.28
1819.7	1.44
1820.05	1.44
1820.39	1.84
1820.73	1.84
1821.08	2.12
1821.42	2.64
1821.77	2.76
1822.11	2.8
1822.45	2.36
1822.8	2.16
1823.14	1.44
1823.49	1.52
1823.83	1.24
1824.17	1.2
1824.52	1.68
1824.86	2.44
1825.2	2.2
1825.55	2.44
1825.89	2.84
1826.24	2.56
1826.58	1.84
1826.92	2.36
1827.27	2.12
1827.61	2.28
1827.95	2.68
1828.3	2.48
1828.64	3.32
1828.98	3.08
1829.33	2.4
1829.67	1.84
1830.02	2.36
1830.36	1
1830.7	1.92
1831.05	2.44
1831.39	2.88
1831.73	2.24
1832.08	2.32
1832.42	1.48
1832.76	0.92
1833.1	0.68
1833.45	1.08
1833.79	0.88
1834.13	1.36
1834.48	1.84
1834.82	1.8
1835.16	2
1835.51	3.12
1835.85	2.84
1836.19	2.68
1836.54	2.52
1836.88	1.88
1837.22	0.76
1837.56	0.76
1837.91	0.08
1838.25	0.12
1838.59	0.36
1838.94	0.64
1839.28	0.36
1839.62	1.12
1839.96	1.84
1840.31	1.68
1840.65	1.64
1840.99	2.2
1841.34	1.88
1841.68	1.36
1842.02	1.72
1842.36	2.2
1842.71	1.92
1843.05	2.12
1843.39	2.24
1843.73	2.16
1844.08	1.6
1844.42	1.48
1844.76	2
1845.1	2.08
1845.45	1.92
1845.79	2.04
1846.13	2.24
1846.47	1.72
1846.81	1.68
1847.16	2.4
1847.5	2.08
1847.84	2.36
1848.18	2.52
1848.53	2.32
1848.87	2.08
1849.21	2.56
1849.55	1.72
1849.89	1.92
1850.24	2.24
1850.58	2.4
1850.92	2.52
1851.26	2.8
1851.6	2.64
1851.95	2.28
1852.29	2.4
1852.63	3.2
1852.97	4.04
1853.31	3.6
1853.66	3.88
1854	3.08
1854.34	2.2
1854.68	2.32
1855.02	2.44
1855.36	2.88
1855.71	2.84
1856.05	2.6
1856.39	2.08
1856.73	1.92
1857.07	0.96
1857.41	1.4
1857.76	1.28
1858.1	0.88
1858.44	1.4
1858.78	2.16
1859.12	2.28
1859.46	3
1859.8	3.48
1860.15	3.24
1860.49	2.72
1860.83	3.68
1861.17	3.2
1861.51	3.8
1861.85	4.28
1862.19	4.4
1862.53	3.2
1862.88	4.08
1863.22	3.68
1863.56	3.2
1863.9	3.28
1864.24	3.24
1864.58	1.76
1864.92	1.44
1865.26	1.64
1865.6	1.36
1865.94	1.8
1866.29	2.32
1866.63	2.4
1866.97	2.2
1867.31	2.12
1867.65	2.24
1867.99	2.44
1868.33	1.88
1868.67	1.96
1869.01	2.52
1869.35	0.84
1869.69	0.44
1870.03	0.92
1870.37	0.76
1870.72	1.24
1871.06	2.52
1871.4	3.52
1871.74	3.4
1872.08	3.32
1872.42	2.6
1872.76	2.2
1873.1	1.56
1873.44	1.24
1873.78	0.72
1874.12	0.96
1874.46	1.08
1874.8	1.28
1875.14	1.6
1875.48	2.6
1875.82	2.08
1876.16	2.08
1876.5	2.32
1876.84	2.4
1877.18	2
1877.52	1.96
1877.86	2.16
1878.2	1.4
1878.54	0.48
1878.88	0.76
1879.22	0.68
1879.56	0.2
1879.9	0.04
1880.24	0.84
1880.58	0.24
1880.92	0.4
1881.26	1.04
1881.6	1.04
1881.94	1.4
1882.28	2
1882.62	1.96
1882.96	1.4
1883.3	1.8
1883.64	1.6
1883.98	1.28
1884.32	1.72
1884.66	2.28
1885	2.12
1885.34	1.92
1885.68	1.8
1886.02	1.2
1886.36	0.96
1886.7	1.2
1887.04	1.12
1887.38	1.36
1887.72	1.36
1888.06	0.36
1888.39	0.16
1888.73	0.2
1889.07	-0.04
1889.41	-0.04
1889.75	0.04
1890.09	-0.08
1890.43	0.24
1890.77	1.04
1891.11	1.08
1891.45	1.92
1891.79	2
1892.13	1.84
1892.47	1.32
1892.8	1.36
1893.14	1.04
1893.48	0.4
1893.82	0.12
1894.16	-0.12
1894.5	0.44
1894.84	0.44
1895.18	1.16
1895.52	1.08
1895.86	1.16
1896.19	0.68
1896.53	0.72
1896.87	0.44
1897.21	0.64
1897.55	0.48
1897.89	0.36
1898.23	0.56
1898.57	0.8
1898.9	0.8
1899.24	1.28
1899.58	1.44
1899.92	1.2
1900.26	0.96
1900.6	0.88
1900.94	0.36
1901.27	0.28
1901.61	0.68
1901.95	0.8
1902.29	0.64
1902.63	0.84
1902.97	1
1903.3	0.8
1903.64	0.72
1903.98	1.16
1904.32	1
1904.66	0.96
1905	0.96
1905.33	0.92
1905.67	0.6
1906.01	0.6
1906.35	0.36
1906.69	0.84
1907.02	0.88
1907.36	0.76
1907.7	1.36
1908.04	1.48
1908.38	0.84
1908.71	0.88
1909.05	0.96
1909.39	0.52
1909.73	0.56
1910.07	0.52
1910.4	0.72
1910.74	0.64
1911.08	0.56
1911.42	0.48
1911.76	1.08
1912.09	0.6
1912.43	0.84
1912.77	0.88
1913.11	1.44
1913.44	1.04
1913.78	0.8
1914.12	0.76
1914.46	0.64
1914.79	0.12
1915.13	-6.66107e-18
1915.47	0.64
1915.81	1.08
1916.14	1.4
1916.48	1.48
1916.82	1.52
1917.16	1
1917.49	0.36
1917.83	0.2
1918.17	0.2
1918.5	0.08
1918.84	0.52
1919.18	1.04
1919.52	1.08
1919.85	0.88
1920.19	0.96
1920.53	0.84
1920.87	0.52
1921.2	0.32
1921.54	0.72
1921.88	0.88
1922.21	0.92
1922.55	0.84
1922.89	0.84
1923.22	0.6
1923.56	0.92
1923.9	0.88
1924.23	1.24
1924.57	0.64
1924.91	0.84
1925.25	0.28
1925.58	0.88
1925.92	0.76
1926.26	2.04
1926.59	1.88
1926.93	2.12
1927.27	1.76
1927.6	2.16
1927.94	1.56
1928.28	1.4
1928.61	1.44
1928.95	1.16
1929.29	0.72
1929.62	0.64
1929.96	0.8
1930.29	0.72
1930.63	1.28
1930.97	1.2
1931.3	1.4
1931.64	1.28
1931.98	1.12
1932.31	-0.12
1932.65	-0.24
1932.99	1.13245e-16
1933.32	0.08
1933.66	0.24
1933.99	1.68
1934.33	1.64
1934.67	1.56
1935	1.72
1935.34	1.6
1935.67	0.84
1936.01	0.76
1936.35	1.48
1936.68	1.36
1937.02	1.44
1937.35	1.56
1937.69	1.88
1938.03	0.8
1938.36	-0.72
1938.7	-0.6
1939.03	-0.56
1939.37	-0.64
1939.7	-0.12
1940.04	1.64
1940.38	1.52
1940.71	1.36
1941.05	1.12
1941.38	1
1941.72	0.96
1942.05	1.76
1942.39	2
1942.73	2.44
1943.06	2.04
1943.4	1.68
1943.73	1.08
1944.07	1.04
1944.4	1.2
1944.74	1.2
1945.07	1.28
1945.41	1.2
1945.74	1.4
1946.08	0.88
1946.42	0.88
1946.75	1.28
1947.09	1.12
1947.42	1.44
1947.76	1.36
1948.09	1.48
1948.43	1.16
1948.76	1.72
1949.1	1.08
1949.43	1.48
1949.77	1.52
1950.1	1.68
1950.44	1.12
1950.77	1.88
1951.11	1.8
1951.44	1.64
1951.78	1.4
1952.11	1.28
1952.45	0.72
1952.78	0.72
1953.12	0.72
1953.45	0.88
1953.79	0.88
1954.12	0.96
1954.46	0.56
1954.79	0.84
1955.12	1.12
1955.46	1.28
1955.79	1.12
1956.13	1.48
1956.46	1.44
1956.8	0.36
1957.13	0.2
1957.47	0.44
1957.8	0.32
1958.14	0.16
1958.47	0.96
1958.8	1.2
1959.14	0.76
1959.47	1.24
1959.81	1.64
1960.14	1.76
1960.48	1.76
1960.81	2.04
1961.14	1.92
1961.48	1.52
1961.81	1.2
1962.15	1.2
1962.48	0.92
1962.82	0.48
1963.15	0.4
1963.48	0.32
1963.82	0.24
1964.15	1.08
1964.49	1.4
1964.82	1.4
1965.15	2
1965.49	1.92
1965.82	1.12
1966.16	1.16
1966.49	1.16
1966.82	0.72
1967.16	1.04
1967.49	1.4
1967.83	1.56
1968.16	1.64
1968.49	1.48
1968.83	1.24
1969.16	0.96
1969.49	0.56
1969.83	0.72
1970.16	0.72
1970.49	0.92
1970.83	1.2
1971.16	1.8
1971.5	1.16
1971.83	1.16
1972.16	1
1972.5	0.64
1972.83	0.32
1973.16	1.12
1973.5	1.16
1973.83	1.16
1974.16	1.52
1974.5	1.16
1974.83	0.96
1975.16	1.2
1975.5	1.2
1975.83	1.52
1976.16	1.72
1976.49	1.52
1976.83	1.4
1977.16	1.2
1977.49	0.64
1977.83	0.76
1978.16	1.16
1978.49	1.16
1978.83	1.44
1979.16	1.32
1979.49	1.32
1979.83	0.92
1980.16	0.88
1980.49	0.92
1980.82	1.04
1981.16	0.88
1981.49	0.92
1981.82	1.28
1982.15	0.96
1982.49	1.12
1982.82	1.24
1983.15	1.44
1983.49	0.96
1983.82	1.16
1984.15	0.92
1984.48	0.84
1984.82	0.6
1985.15	1
1985.48	0.8
1985.81	0.92
1986.15	0.88
1986.48	1
1986.81	0.88
1987.14	0.92
1987.48	1.04
1987.81	1.12
1988.14	1
1988.47	1.32
1988.81	1.28
1989.14	2.04
1989.47	1.84
1989.8	1.96
1990.13	1.48
1990.47	1.8
1990.8	1.12
1991.13	1.6
1991.46	1.76
1991.79	1.04
1992.13	0.28
1992.46	-0.12
1992.79	-0.64
1993.12	-0.92
1993.45	-0.64
1993.79	-0.08
1994.12	0.08
1994.45	0.2
1994.78	0.24
1995.11	0.76
1995.45	0.92
1995.78	0.76
1996.11	0.96
1996.44	1.2
1996.77	1
1997.1	0.84
1997.44	1.04
1997.77	0.6
1998.1	0.36
1998.43	0.76
1998.76	1
1999.09	1.16
1999.43	-0.04
1999.76	0.12
2000.09	-0.12
2000.42	-0.2
2000.75	-1.04
2001.08	0.16
2001.41	-0.04
2001.75	0.48
2002.08	0.36
2002.41	1.12
2002.74	1.64
2003.07	1.96
2003.4	1.28
2003.73	1.48
2004.06	1.4
2004.4	0.96
2004.73	0.64
2005.06	0.44
2005.39	0.44
2005.72	0.04
2006.05	0.08
2006.38	0.44
2006.71	0.8
2007.04	0.48
2007.37	0.96
2007.71	0.84
2008.04	0.6
2008.37	0.48
2008.7	0.44
2009.03	0.16
2009.36	0.16
2009.69	0.12
2010.02	0.16
2010.35	0.28
2010.68	0.32
2011.01	0.64
2011.34	0.72
2011.67	0.64
2012.01	0.64
2012.34	0.6
2012.67	0.32
2013	0.16
2013.33	0.6
2013.66	0.92
2013.99	1.12
2014.32	1.2
2014.65	1.48
2014.98	1.16
2015.31	0.72
2015.64	0.52
2015.97	0.52
2016.3	0.4
2016.63	0.4
2016.96	0.44
2017.29	-0.16
2017.62	-0.28
2017.95	-0.16
2018.28	-0.28
2018.61	-0.28
2018.94	0.6
2019.27	0.64
2019.6	0.52
2019.93	0.68
2020.26	0.72
2020.59	0.68
2020.92	0.68
2021.25	0.6
2021.58	0.56
2021.91	0.92
2022.24	0.76
2022.57	0.84
2022.9	0.92
2023.23	0.84
2023.56	0.4
2023.89	0.52
2024.22	0.4
2024.55	0.24
2024.88	0.2
2025.21	0.4
2025.54	0.08
2025.87	0.2
2026.2	0.28
2026.53	0.56
2026.86	0.44
2027.19	0.96
2027.52	0.84
2027.85	0.96
2028.18	0.76
2028.51	0.68
2028.84	0.6
2029.16	0.88
2029.49	0.84
2029.82	0.88
2030.15	1.2
2030.48	0.4
2030.81	0.2
2031.14	0.52
2031.47	0.52
2031.8	0.2
2032.13	0.84
2032.46	1.16
2032.79	0.96
2033.12	0.84
2033.44	0.88
2033.77	0.84
2034.1	0.64
2034.43	0.56
2034.76	0.76
2035.09	0.72
2035.42	0.76
2035.75	0.64
2036.08	0.44
2036.41	0.44
2036.73	0.68
2037.06	0.56
2037.39	0.48
2037.72	0.48
2038.05	0.28
2038.38	0.08
2038.71	0.28
2039.04	-0.36
2039.36	-0.2
2039.69	0.12
2040.02	-0.16
2040.35	-0.4
2040.68	0.28
2041.01	0.12
2041.34	-0.36
2041.66	-7.21672e-18
2041.99	-7.21672e-18
2042.32	-0.04
2042.65	0.6
2042.98	1.48
2043.31	1.44
2043.63	1.6
2043.96	1.64
2044.29	1.56
2044.62	1.2
2044.95	1.64
2045.28	1.68
2045.6	2
2045.93	1.56
2046.26	1.4
2046.59	1.2
2046.92	1.16
2047.24	0.8
2047.57	0.88
2047.9	0.72
2048.23	0.48
2048.56	0.32
2048.88	0.64
2049.21	0.44
2049.54	0.56
2049.87	0.76
2050.2	1.28
2050.52	1.08
2050.85	1.2
2051.18	1.44
2051.51	1.24
2051.83	0.84
2052.16	1.16
2052.49	1.2
2052.82	0.8
2053.15	0.88
2053.47	1.24
2053.8	0.8
2054.13	0.76
2054.46	0.92
2054.78	0.76
2055.11	0.28
2055.44	0.2
2055.77	0.64
2056.09	0.48
2056.42	1
2056.75	1.32
2057.08	1.72
2057.4	1.16
2057.73	1.16
2058.06	0.76
2058.38	0.64
2058.71	0.32
2059.04	0.48
2059.37	0.8
2059.69	1.12
2060.02	0.92
2060.35	0.92
2060.67	0.76
2061	0.96
2061.33	0.64
2061.66	0.76
2061.98	0.76
2062.31	0.76
2062.64	0.44
2062.96	0.88
2063.29	1.08
2063.62	1.12
2063.94	1.16
2064.27	1.04
2064.6	-0.2
2064.92	-0.52
2065.25	-0.4
2065.58	0.12
2065.91	0.12
2066.23	1
2066.56	1.28
2066.89	1.32
2067.21	0.76
2067.54	1.16
2067.87	1.44
2068.19	1.52
2068.52	1.36
2068.84	1.52
2069.17	1.24
2069.5	1.08
2069.82	0.64
2070.15	1
2070.48	1.04
2070.8	0.88
2071.13	0.64
2071.46	0.84
2071.78	0.72
2072.11	0.56
2072.43	0.56
2072.76	0.56
2073.09	0.44
2073.41	0.16
2073.74	0.2
2074.07	0.16
2074.39	0.32
2074.72	0.48
2075.04	0.88
2075.37	1.48
2075.7	1.48
2076.02	1.48
2076.35	1.32
2076.67	0.96
2077	0.28
2077.33	0.32
2077.65	0.12
2077.98	0.68
2078.3	0.88
2078.63	1.16
2078.95	1.36
2079.28	1.84
2079.61	0.76
2079.93	0.56
2080.26	0.32
2080.58	0.44
2080.91	-0.08
2081.23	0.84
2081.56	1.04
2081.89	1.2
2082.21	1.04
2082.54	1.04
2082.86	0.84
2083.19	0.6
2083.51	0.6
2083.84	0.64
2084.16	0.84
2084.49	0.72
2084.81	0.72
2085.14	0.72
2085.46	0.52
2085.79	0.32
2086.12	0.44
2086.44	0.88
2086.77	1
2087.09	1.08
2087.42	1.76
2087.74	1.64
2088.07	1.56
2088.39	1.24
2088.72	1.12
2089.04	0.84
2089.37	0.92
2089.69	0.64
2090.02	1.44
2090.34	1.08
2090.67	0.84
2090.99	-0.96
2091.32	-1.04
2091.64	-1.84
2091.97	-1.48
2092.29	-1
2092.62	0.84
2092.94	1.08
2093.26	1.12
2093.59	1.36
2093.91	-0.48
2094.24	-0.44
2094.56	-0.56
2094.89	-0.32
2095.21	0.16
2095.54	1.8
2095.86	1.68
2096.19	1.56
2096.51	1.84
2096.84	1.28
2097.16	0.84
2097.48	1
2097.81	1
2098.13	0.64
2098.46	0.08
2098.78	0.12
2099.11	-0.08
2099.43	-0.04
2099.75	-0.08
2100.08	0.48
2100.4	0.56
2100.73	0.64
2101.05	0.6
2101.38	0.48
2101.7	0.48
2102.02	0.6
2102.35	0.76
2102.67	0.96
2103	1.08
2103.32	1.28
2103.64	1.04
2103.97	0.84
2104.29	0.64
2104.62	0.64
2104.94	0.4
2105.26	-0.12
2105.59	-1.44334e-17
2105.91	0.12
2106.23	0.4
2106.56	0.6
2106.88	1.32
2107.21	1.08
2107.53	1.44
2107.85	1
2108.18	0.68
2108.5	0.48
2108.82	0.64
2109.15	0.56
2109.47	0.6
2109.79	1.04
2110.12	1.24
2110.44	1.72
2110.76	1.56
2111.09	1.92
2111.41	1.76
2111.73	1.88
2112.06	1.4
2112.38	1.16
2112.7	0.2
2113.03	-0.08
2113.35	-0.4
2113.67	-0.48
2114	-0.28
2114.32	0.36
2114.64	0.48
2114.97	0.96
2115.29	0.92
2115.61	1.08
2115.94	1.48
2116.26	1.76
2116.58	1.28
2116.91	0.28
2117.23	-6.66107e-18
2117.55	0.2
2117.87	0.52
2118.2	0.52
2118.52	1.52
2118.84	1.88
2119.17	1.44
2119.49	1
2119.81	1.32
2120.13	1.28
2120.46	1
2120.78	-0.24
2121.1	-0.52
2121.42	-0.8
2121.75	-0.68
2122.07	-0.84
2122.39	0.24
2122.72	0.36
2123.04	0.44
2123.36	0.36
2123.68	0.36
2124.01	0.28
2124.33	0.2
2124.65	0.6
2124.97	1.16
2125.29	1.28
2125.62	1.64
2125.94	2.04
2126.26	1.52
2126.58	1.08
2126.91	-0.04
2127.23	-0.28
2127.55	-0.72
2127.87	-0.64
2128.2	-0.72
2128.52	0.32
2128.84	0.44
2129.16	0.76
2129.48	0.76
2129.81	1.04
2130.13	1.16
2130.45	0.96
2130.77	0.8
2131.09	0.72
2131.42	0.48
2131.74	0.36
2132.06	0.52
2132.38	0.6
2132.7	0.6
2133.02	0.6
2133.35	0.88
2133.67	1.52
2133.99	1.6
2134.31	1.16
2134.63	1.56
2134.96	1.32
2135.28	0.48
2135.6	0.4
2135.92	0.92
2136.24	0.68
2136.56	1.04
2136.88	1.04
2137.21	0.92
2137.53	0.84
2137.85	0.76
2138.17	-0.08
2138.49	0.16
2138.81	0.24
2139.13	0.28
2139.46	0.96
2139.78	1.88
2140.1	1.76
2140.42	1.56
2140.74	1.52
2141.06	0.96
2141.38	0.6
2141.7	0.88
2142.03	0.92
2142.35	1.28
2142.67	1
2142.99	1.32
2143.31	0.92
2143.63	1
2143.95	1
2144.27	1
2144.59	0.52
2144.91	0.72
2145.24	0.76
2145.56	0.68
2145.88	0.8
2146.2	0.8
2146.52	0.68
2146.84	0.84
2147.16	0.56
2147.48	0.76
2147.8	1
2148.12	1.12
2148.44	1.24
2148.76	1.64
2149.08	1.4
2149.41	1.24
2149.73	1.16
2150.05	1.08
2150.37	1.28
2150.69	1.16
2151.01	1.32
2151.33	1.36
2151.65	1
2151.97	0.4
2152.29	0.48
2152.61	-0.16
2152.93	-0.08
2153.25	0.16
2153.57	0.16
2153.89	0.16
2154.21	0.16
2154.53	-0.04
2154.85	-0.28
2155.17	-0.24
2155.49	-0.4
2155.81	0.2
2156.13	0.52
2156.45	0.52
2156.77	0.56
2157.09	1
2157.41	0.92
2157.73	0.56
2158.05	0.64
2158.37	0.56
2158.69	0.28
2159.01	0.68
2159.33	0.68
2159.65	0.6
2159.97	1.08
2160.29	1.04
2160.61	0.52
2160.93	0.52
2161.25	0.68
2161.57	0.28
2161.89	0.36
2162.21	0.96
2162.53	1.04
2162.85	0.72
2163.17	0.72
2163.49	1
2163.81	0.4
2164.13	0.32
2164.45	-0.12
2164.77	-0.2
2165.08	-0.28
2165.4	-0.16
2165.72	-0.16
2166.04	0.72
2166.36	1.12
2166.68	0.88
2167	0.84
2167.32	1.12
2167.64	1.4
2167.96	1.16
2168.28	1.28
2168.6	1.2
2168.92	0.92
2169.24	0.56
2169.55	0.56
2169.87	0.4
2170.19	0.56
2170.51	0.64
2170.83	0.44
2171.15	0.28
2171.47	0.52
2171.79	0.36
2172.11	0.32
2172.43	0.68
2172.74	0.68
2173.06	0.72
2173.38	0.76
2173.7	0.96
2174.02	0.8
2174.34	0.8
2174.66	0.64
2174.98	0.96
2175.29	1.2
2175.61	1
2175.93	1.16
2176.25	1.16
2176.57	1
2176.89	0.52
2177.21	0.52
2177.52	0.36
2177.84	0.56
2178.16	0.36
2178.48	0.64
2178.8	0.64
2179.12	1.12
2179.43	0.8
2179.75	0.16
2180.07	0.24
2180.39	0.52
2180.71	0.56
2181.03	0.76
2181.34	1.4
2181.66	1.12
2181.98	1.28
2182.3	0.88
2182.62	0.8
2182.93	0.76
2183.25	1
2183.57	0.8
2183.89	1
2184.21	0.96
2184.52	1
2184.84	0.72
2185.16	0.64
2185.48	0.32
2185.8	0.32
2186.11	0.44
2186.43	0.56
2186.75	0.92
2187.07	0.8
2187.39	0.28
2187.7	0.28
2188.02	-0.44
2188.34	-0.92
2188.66	-0.8
2188.97	-0.32
2189.29	-0.12
2189.61	0.84
2189.93	0.8
2190.24	1.16
2190.56	1.12
2190.88	0.8
2191.2	0.6
2191.51	0.6
2191.83	0.6
2192.15	0.56
2192.47	0.56
2192.78	0.84
2193.1	0.96
2193.42	0.72
2193.74	0.88
2194.05	0.88
2194.37	0.4
2194.69	0.56
2195	0.2
2195.32	0.04
2195.64	0.36
2195.96	0.56
2196.27	0.68
2196.59	0.4
2196.91	0.48
2197.22	0.52
2197.54	0.68
2197.86	0.76
2198.18	1.4
2198.49	1.32
2198.81	1.08
2199.13	1.04
2199.44	0.6
2199.76	0.84
2200.08	1.12
2200.39	1.2
2200.71	1.44
2201.03	1.44
2201.34	1.08
2201.66	0.88
2201.98	0.68
2202.29	0.12
2202.61	0.08
2202.93	0.08
2203.24	0
2203.56	0
2203.88	0.56
2204.19	0.72
2204.51	0.76
2204.83	1
2205.14	1.16
2205.46	0.6
2205.78	0.84
2206.09	0.92
2206.41	0.48
2206.72	0.12
2207.04	0.12
2207.36	-0.68
2207.67	-0.44
2207.99	-0.16
2208.31	1.04
2208.62	1.28
2208.94	1.8
2209.25	1.68
2209.57	1.72
2209.89	0.72
2210.2	0.96
2210.52	0.84
2210.83	0.6
2211.15	0.56
2211.47	0.56
2211.78	0.12
2212.1	-1.11131e-18
2212.41	0.12
2212.73	0.08
2213.05	0.2
2213.36	0.64
2213.68	1.04
2213.99	1.08
2214.31	1.04
2214.62	1.16
2214.94	0.76
2215.26	0.48
2215.57	0.32
2215.89	0.32
2216.2	0.08
2216.52	0
2216.83	0.4
2217.15	0.52
2217.46	0.56
2217.78	1.08
2218.1	1.08
2218.41	0.76
2218.73	0.88
2219.04	0.84
2219.36	0.6
2219.67	0.6
2219.99	0.52
2220.3	0.88
2220.62	0.88
2220.93	0.64
2221.25	0.64
2221.56	1.12
2221.88	0.8
2222.19	1.12
2222.51	1.16
2222.82	-0.04
2223.14	-0.52
2223.45	-0.8
2223.77	-1
2224.08	-0.88
2224.4	0.72
2224.71	0.72
2225.03	0.76
2225.34	0.92
2225.66	-0.68
2225.97	-1.08
2226.29	-0.84
2226.6	-0.48
2226.92	0.24
2227.23	1.84
2227.55	1.84
2227.86	1.64
2228.18	1.64
2228.49	1
2228.81	0.84
2229.12	1.04
2229.44	1.32
2229.75	1.56
2230.07	1.44
2230.38	1.68
2230.69	1.68
2231.01	1.36
2231.32	1.2
2231.64	1.16
2231.95	1
2232.27	0.84
2232.58	0.84
2232.9	0.44
2233.21	0.32
2233.52	0.36
2233.84	0.32
2234.15	0.4
2234.47	0.32
2234.78	0.52
2235.1	0.64
2235.41	1.04
2235.72	1.08
2236.04	1.16
2236.35	0.92
2236.67	0.04
2236.98	-0.28
2237.29	0.2
2237.61	0.12
2237.92	0.28
2238.24	1.28
2238.55	1.36
2238.86	1.56
2239.18	1.56
2239.49	0.68
2239.8	0.4
2240.12	0.6
2240.43	-0.04
2240.75	0.08
2241.06	0.76
2241.37	0.72
2241.69	0.44
2242	0.44
2242.31	0.32
2242.63	0.44
2242.94	0.48
2243.26	-0.12
2243.57	-0.08
2243.88	0.04
2244.2	0.16
2244.51	0.28
2244.82	1.08
2245.14	1.08
2245.45	1.16
2245.76	0.92
2246.08	0.72
2246.39	0.44
2246.7	0.48
2247.02	0.44
2247.33	0.52
2247.64	0.6
2247.96	0.6
2248.27	0.52
2248.58	-0.6
2248.9	-0.16
2249.21	-0.08
2249.52	0.12
2249.83	-0.04
2250.15	0.96
2250.46	0.48
2250.77	0.44
2251.09	0.68
2251.4	0.8
2251.71	0.76
2252.03	0.72
2252.34	0.64
2252.65	0.44
2252.96	0.32
2253.28	0.36
2253.59	0.64
2253.9	0.96
2254.21	0.96
2254.53	1.12
2254.84	0.68
2255.15	0.4
2255.47	0.04
2255.78	-0.04
2256.09	-0.16
2256.4	0.88
2256.72	1.12
2257.03	1.2
2257.34	1.24
2257.65	1.2
2257.97	0.84
2258.28	0.92
2258.59	0.8
2258.9	0.64
2259.22	0.76
2259.53	0.48
2259.84	0.28
2260.15	0.36
2260.46	0.36
2260.78	0.36
2261.09	0.48
2261.4	0.48
2261.71	0.48
2262.03	0.88
2262.34	0.76
2262.65	0.64
2262.96	0.64
2263.27	0.64
2263.59	0.36
2263.9	0.72
2264.21	0.92
2264.52	0.88
2264.83	0.88
2265.15	0.92
2265.46	0.64
2265.77	0.72
2266.08	0.68
2266.39	0.8
2266.7	1.16
2267.02	1.92
2267.33	1.52
2267.64	1.64
2267.95	2.08
2268.26	1.52
2268.57	1.12
2268.89	1.28
2269.2	1.12
2269.51	0.76
2269.82	0.88
2270.13	0.6
2270.44	0.88
2270.76	0.52
2271.07	0.4
2271.38	-0.24
2271.69	-0.36
2272	-0.48
2272.31	-0.08
2272.62	-0.96
2272.93	-0.32
2273.25	-0.36
2273.56	-0.4
2273.87	-0.44
2274.18	0.32
2274.49	0.32
2274.8	0.4
2275.11	0.6
2275.42	0.92
2275.74	1.4
2276.05	1.32
2276.36	1.24
2276.67	1
2276.98	0.68
2277.29	0.16
2277.6	0.56
2277.91	1
2278.22	0.48
2278.53	0.92
2278.85	1.12
2279.16	-0.32
2279.47	-0.76
2279.78	0.04
2280.09	-0.36
2280.4	-0.52
2280.71	1.12
2281.02	1.2
2281.33	0.84
2281.64	1.08
2281.95	1.12
2282.26	0.48
2282.57	0.48
2282.88	0.44
2283.19	0.36
2283.5	0.28
2283.82	0.32
2284.13	0.32
2284.44	0.44
2284.75	-0.36
2285.06	-0.08
2285.37	-0.12
2285.68	-0.2
2285.99	-0.28
2286.3	0.48
2286.61	0.2
2286.92	0.44
2287.23	0.44
2287.54	0.48
2287.85	0.44
2288.16	0.48
2288.47	0.24
2288.78	0.56
2289.09	0.52
2289.4	0.56
2289.71	0.96
2290.02	0.96
2290.33	0.64
2290.64	0.68
2290.95	0.32
2291.26	0.2
2291.57	0.2
2291.88	0.04
2292.19	0.08
2292.5	0.28
2292.81	-0.04
2293.12	-0.04
2293.43	0.12
2293.74	0
2294.05	0
2294.36	0
2294.67	0
2294.98	0
2295.29	0
2295.6	0
2295.91	0
2296.21	0
2296.52	0
2296.83	0
2297.14	0
2297.45	0
2297.76	0
2298.07	0
2298.38	0
2298.69	0
2299	0
2299.31	0
2299.62	0
2299.93	0
2300.24	0
2300.55	0
2300.85	0
2301.16	0
2301.47	0
2301.78	0
2302.09	0
2302.4	0
2302.71	0
2303.02	0
2303.33	0
2303.64	0
2303.94	0
2304.25	0
2304.56	0
2304.87	0
2305.18	0
2305.49	0
2305.8	0
2306.11	0
2306.42	0
2306.72	0
2307.03	0
2307.34	0
2307.65	0
2307.96	0
2308.27	0
2308.58	0
2308.88	0
2309.19	0
2309.5	0
2309.81	0
2310.12	0
2310.43	0
2310.74	0
2311.04	0
2311.35	0
2311.66	0
2311.97	0
2312.28	0
2312.59	0
2312.89	0
2313.2	0
2313.51	0
2313.82	0
2314.13	0
2314.43	0
2314.74	0
2315.05	0
2315.36	0
2315.67	0
2315.97	0
2316.28	0
2316.59	0
2316.9	0
2317.21	0
2317.51	0
2317.82	0
2318.13	0
2318.44	0
2318.75	0
2319.05	0
2319.36	0
2319.67	0
2319.98	0
2320.28	0
2320.59	0
2320.9	0
2321.21	0
2321.51	0
2321.82	0
2322.13	0
2322.44	0
2322.74	0
2323.05	0
2323.36	0
2323.67	0
2323.97	0
2324.28	0
2324.59	0
2324.9	0
2325.2	0
2325.51	0
2325.82	0
2326.13	0
2326.43	0
2326.74	0
2327.05	0
2327.35	0
2327.66	0
2327.97	0
2328.27	0
2328.58	0
2328.89	0
2329.2	0
2329.5	0
2329.81	0
2330.12	0
2330.42	0
2330.73	0
2331.04	0
2331.34	0
2331.65	0
2331.96	0
2332.26	0
2332.57	0
2332.88	0
2333.18	0
2333.49	0
2333.8	0
2334.1	0
2334.41	0
2334.72	0
2335.02	0
2335.33	0
2335.64	0
2335.94	0
2336.25	0
2336.56	0
2336.86	0
2337.17	0
2337.48	0
2337.78	0
2338.09	0
2338.39	0
2338.7	0
2339.01	0
2339.31	0
2339.62	0
2339.93	0
2340.23	0
2340.54	0
2340.84	0
2341.15	0
2341.46	0
2341.76	0
2342.07	0
2342.37	0
2342.68	0
2342.99	0
2343.29	0
2343.6	0
2343.9	0
2344.21	0
2344.51	0
2344.82	0
2345.13	0
2345.43	0
2345.74	0
2346.04	0
2346.35	0
2346.65	0
2346.96	0
2347.27	0
2347.57	0
2347.88	0
2348.18	0
2348.49	0
2348.79	0
2349.1	0
2349.4	0
2349.71	0
2350.01	0
2350.32	0
2350.63	0
2350.93	0
2351.24	0
2351.54	0
2351.85	0
2352.15	0
2352.46	0
2352.76	0
2353.07	0
2353.37	0
2353.68	0
2353.98	0
2354.29	0
2354.59	0
2354.9	0
2355.2	0
2355.51	0
2355.81	0
2356.12	0
2356.42	0
2356.73	0
2357.03	0
2357.34	0
2357.64	0
2357.95	0
2358.25	0
2358.55	0
2358.86	0
2359.16	0
2359.47	0
2359.77	0
2360.08	0
2360.38	0
2360.69	0
2360.99	0
2361.3	0
2361.6	0
2361.9	0
2362.21	0
2362.51	0
2362.82	0
2363.12	0
2363.43	0
2363.73	0
2364.04	0
2364.34	0
2364.64	0
2364.95	0
2365.25	0
2365.56	0
2365.86	0
2366.16	0
2366.47	0
2366.77	0
2367.08	0
2367.38	0
2367.68	0
2367.99	0
2368.29	0
2368.6	0
2368.9	0
2369.2	0
2369.51	0
2369.81	0
2370.12	0
2370.42	0
2370.72	0
2371.03	0
2371.33	0
2371.63	0
2371.94	0
2372.24	0
2372.55	0
2372.85	0
2373.15	0
2373.46	0
2373.76	0
2374.06	0
2374.37	0
2374.67	0
2374.97	0
2375.28	0
2375.58	0
2375.88	0
2376.19	0
2376.49	0
2376.79	0
2377.1	0
2377.4	0
2377.7	0
2378.01	0
2378.31	0
2378.61	0
2378.92	0
2379.22	0
2379.52	0
2379.82	0
2380.13	0
2380.43	0
2380.73	0
2381.04	0
2381.34	0
2381.64	0
2381.95	0
2382.25	0
2382.55	0
2382.85	0
2383.16	0
2383.46	0
2383.76	0
2384.06	0
2384.37	0
2384.67	0
2384.97	0
2385.28	0
2385.58	0
2385.88	0
2386.18	0
2386.49	0
2386.79	0
2387.09	0
2387.39	0
2387.69	0
2388	0
2388.3	0
2388.6	0
2388.9	0
2389.21	0
2389.51	0
2389.81	0
2390.11	0
2390.42	0
2390.72	0
2391.02	0
2391.32	0
2391.62	0
2391.93	0
2392.23	0
2392.53	0
2392.83	0
2393.13	0
2393.44	0
2393.74	0
2394.04	0
2394.34	0
2394.64	0
2394.95	0
2395.25	0
2395.55	0
2395.85	0
2396.15	0
2396.45	0
2396.76	0
2397.06	0
2397.36	0
2397.66	0
2397.96	0
2398.26	0
2398.57	0
2398.87	0
2399.17	0
2399.47	0
2399.77	0
2400.07	0
2400.37	0
2400.68	0
2400.98	0
2401.28	0
2401.58	0
2401.88	0
2402.18	0
2402.48	0
2402.79	0
2403.09	0
2403.39	0
2403.69	0
2403.99	0
2404.29	0
2404.59	0
2404.89	0
2405.19	0
2405.5	0
2405.8	0
2406.1	0
2406.4	0
2406.7	0
2407	0
2407.3	0
2407.6	0
2407.9	0
2408.2	0
2408.5	0
2408.8	0
2409.11	0
2409.41	0
2409.71	0
2410.01	0
2410.31	0
2410.61	0
2410.91	0
2411.21	0
2411.51	0
2411.81	0
2412.11	0
2412.41	0
2412.71	0
2413.01	0
2413.31	0
2413.61	0
2413.91	0
2414.21	0
2414.51	0
2414.81	0
2415.12	0
2415.42	0
2415.72	0
2416.02	0
2416.32	0
2416.62	0
2416.92	0
2417.22	0
2417.52	0
2417.82	0
2418.12	0
2418.42	0
2418.72	0
2419.02	0
2419.32	0
2419.62	0
2419.92	0
2420.22	0
2420.52	0
2420.82	0
2421.12	0
2421.42	0
2421.71	0
2422.01	0
2422.31	0
2422.61	0
2422.91	0
2423.21	0
2423.51	0
2423.81	0
2424.11	0
2424.41	0
2424.71	0
2425.01	0
2425.31	0
2425.61	0
2425.91	0
2426.21	0
2426.51	0
2426.81	0
2427.11	0
2427.41	0
2427.7	0
2428	0
2428.3	0
2428.6	0
2428.9	0
2429.2	0
2429.5	0
2429.8	0
2430.1	0
2430.4	0
2430.7	0
2430.99	0
2431.29	0
2431.59	0
2431.89	0
2432.19	0
2432.49	0
2432.79	0
2433.09	0
2433.39	0
2433.68	0
2433.98	0
2434.28	0
2434.58	0
2434.88	0
2435.18	0
2435.48	0
2435.78	0
2436.07	0
2436.37	0
2436.67	0
2436.97	0
2437.27	0
2437.57	0
2437.86	0
2438.16	0
2438.46	0
2438.76	0
2439.06	0
2439.36	0
2439.66	0
2439.95	0
2440.25	0
2440.55	0
2440.85	0
2441.15	0
2441.44	0
2441.74	0
2442.04	0
2442.34	0
2442.64	0
2442.93	0
2443.23	0
2443.53	0
2443.83	0
2444.13	0
2444.42	0
2444.72	0
2445.02	0
2445.32	0
2445.62	0
2445.91	0
2446.21	0
2446.51	0
2446.81	0
2447.1	0
2447.4	0
2447.7	0
2448	0
2448.3	0
2448.59	0
2448.89	0
2449.19	0
2449.49	0
2449.78	0
2450.08	0
2450.38	0
2450.68	0
2450.97	0
2451.27	0
2451.57	0
2451.87	0
2452.16	0
2452.46	0
2452.76	0
2453.05	0
2453.35	0
2453.65	0
2453.95	0
2454.24	0
2454.54	0
2454.84	0
2455.13	0
2455.43	0
2455.73	0
2456.03	0
2456.32	0
2456.62	0
2456.92	0
2457.21	0
2457.51	0
2457.81	0
2458.1	0
2458.4	0
2458.7	0
2458.99	0
2459.29	0
2459.59	0
2459.88	0
2460.18	0
2460.48	0
2460.77	0
2461.07	0
2461.37	0
2461.66	0
2461.96	0
2462.26	0
2462.55	0
2462.85	0
2463.15	0
2463.44	0
2463.74	0
2464.04	0
2464.33	0
2464.63	0
2464.92	0
2465.22	0
2465.52	0
2465.81	0
2466.11	0
2466.41	0
2466.7	0
2467	0
2467.29	0
2467.59	0
2467.89	0
2468.18	0
2468.48	0
2468.77	0
2469.07	0
2469.37	0
2469.66	0
2469.96	0
2470.25	0
2470.55	0
2470.84	0
2471.14	0
2471.44	0
2471.73	0
2472.03	0
2472.32	0
2472.62	0
2472.91	0
2473.21	0
2473.51	0
2473.8	0
2474.1	0
2474.39	0
2474.69	0
2474.98	0
2475.28	0
2475.57	0
2475.87	0
2476.17	0
2476.46	0
2476.76	0
2477.05	0
2477.35	0
2477.64	0
2477.94	0
2478.23	0
2478.53	0
2478.82	0
2479.12	0
2479.41	0
2479.71	0
2480	0
2480.3	0
2480.59	0
2480.89	0
2481.18	0
2481.48	0
2481.77	0
2482.07	0
2482.36	0
2482.66	0
2482.95	0
2483.25	0
2483.54	0
2483.84	0
2484.13	0
2484.43	0
2484.72	0
2485.02	0
2485.31	0
2485.6	0
2485.9	0
2486.19	0
2486.49	0
2486.78	0
2487.08	0
2487.37	0
2487.67	0
2487.96	0
2488.26	0
2488.55	0
2488.84	0
2489.14	0
2489.43	0
2489.73	0
2490.02	0
2490.32	0
2490.61	0
2490.9	0
2491.2	0
2491.49	0
2491.79	0
2492.08	0
2492.37	0
2492.67	0
2492.96	0
2493.26	0
2493.55	0
2493.84	0
2494.14	0
2494.43	0
2494.73	0
2495.02	0
2495.31	0
2495.61	0
2495.9	0
2496.2	0
2496.49	0
2496.78	0
2497.08	0
2497.37	0
2497.66	0
2497.96	0
2498.25	0
2498.54	0
2498.84	0
2499.13	0
2499.43	0
2499.72	0
2500.01	0
2500.31	0
2500.6	0
2500.89	0
2501.19	0
2501.48	0
2501.77	0
2502.07	0
2502.36	0
2502.65	0
2502.95	0
2503.24	0
2503.53	0
2503.82	0
2504.12	0
2504.41	0
2504.7	0
2505	0
2505.29	0
2505.58	0
2505.88	0
2506.17	0
2506.46	0
2506.76	0
2507.05	0
2507.34	0
2507.63	0
2507.93	0
2508.22	0
2508.51	0
2508.8	0
2509.1	0
2509.39	0
2509.68	0
2509.98	0
2510.27	0
2510.56	0
2510.85	0
2511.15	0
2511.44	0
2511.73	0
2512.02	0
2512.32	0
2512.61	0
2512.9	0
2513.19	0
2513.49	0
2513.78	0
2514.07	0
2514.36	0
2514.65	0
2514.95	0
2515.24	0
2515.53	0
2515.82	0
2516.12	0
2516.41	0
2516.7	0
2516.99	0
2517.28	0
2517.58	0
2517.87	0
2518.16	0
2518.45	0
2518.74	0
2519.04	0
2519.33	0
2519.62	0
2519.91	0
2520.2	0
2520.5	0
2520.79	0
2521.08	0
2521.37	0
2521.66	0
2521.95	0
2522.25	0
2522.54	0
2522.83	0
2523.12	0
2523.41	0
2523.7	0
2523.99	0
2524.29	0
2524.58	0
2524.87	0
2525.16	0
2525.45	0
2525.74	0
2526.03	0
2526.33	0
2526.62	0
2526.91	0
2527.2	0
2527.49	0
2527.78	0
2528.07	0
2528.36	0
2528.66	0
2528.95	0
2529.24	0
2529.53	0
2529.82	0
2530.11	0
2530.4	0
2530.69	0
2530.98	0
2531.27	0
2531.57	0
2531.86	0
2532.15	0
2532.44	0
2532.73	0
2533.02	0
2533.31	0
2533.6	0
2533.89	0
2534.18	0
2534.47	0
2534.76	0
2535.05	0
2535.35	0
2535.64	0
2535.93	0
2536.22	0
2536.51	0
2536.8	0
2537.09	0
2537.38	0
2537.67	0
2537.96	0
2538.25	0
2538.54	0
2538.83	0
2539.12	0
2539.41	0
2539.7	0
2539.99	0
2540.28	0
2540.57	0
2540.86	0
2541.15	0
2541.44	0
2541.73	0
2542.02	0
2542.31	0
2542.6	0
2542.89	0
2543.18	0
2543.47	0
2543.76	0
2544.05	0
2544.34	0
2544.63	0
2544.92	0
2545.21	0
2545.5	0
2545.79	0
2546.08	0
2546.37	0
2546.66	0
2546.95	0
2547.24	0
2547.53	0
2547.82	0
2548.11	0
2548.4	0
2548.69	0
2548.98	0
2549.27	0
2549.55	0
2549.84	0
2550.13	0
2550.42	0
2550.71	0
2551	0
2551.29	0
2551.58	0
2551.87	0
2552.16	0
2552.45	0
2552.74	0
2553.03	0
2553.31	0
2553.6	0
2553.89	0
2554.18	0
2554.47	0
2554.76	0
2555.05	0
2555.34	0
2555.63	0
2555.92	0
2556.2	0
2556.49	0
2556.78	0
2557.07	0
2557.36	0
2557.65	0
2557.94	0
2558.23	0
2558.51	0
2558.8	0
2559.09	0
2559.38	0
2559.67	0
2559.96	0
2560.25	0
2560.53	0
2560.82	0
2561.11	0
2561.4	0
2561.69	0
2561.98	0
2562.27	0
2562.55	0
2562.84	0
2563.13	0
2563.42	0
2563.71	0
2564	0
2564.28	0
2564.57	0
2564.86	0
2565.15	0
2565.44	0
2565.72	0
2566.01	0
2566.3	0
2566.59	0
2566.88	0
2567.16	0
2567.45	0
2567.74	0
2568.03	0
2568.32	0
2568.6	0
2568.89	0
2569.18	0
2569.47	0
2569.75	0

