Source: Spectrum Viewer

Chart: Pulse Spectrum

Series: 
Wavelength (nm)	S (a.u.)
1179.9	0
1180.29	0
1180.68	0
1181.06	0
1181.45	0
1181.83	0
1182.22	0
1182.6	0
1182.99	0
1183.38	0
1183.76	0
1184.15	0
1184.53	0
1184.92	0
1185.3	0
1185.69	0
1186.07	0
1186.46	0
1186.85	0
1187.23	0
1187.62	0
1188	0
1188.39	0
1188.77	0
1189.16	0
1189.54	0
1189.93	0
1190.31	0
1190.7	0
1191.08	0
1191.47	0
1191.85	0
1192.24	0
1192.62	0
1193.01	0
1193.39	0
1193.78	0
1194.16	0
1194.55	0
1194.93	0
1195.32	0
1195.7	0
1196.09	0
1196.47	0
1196.86	0
1197.24	0
1197.63	0
1198.01	0
1198.4	0
1198.78	0
1199.16	0
1199.55	0
1199.93	0
1200.32	0
1200.7	0
1201.09	0
1201.47	0
1201.86	0
1202.24	0
1202.63	0
1203.01	0
1203.39	0
1203.78	0
1204.16	0
1204.55	0
1204.93	0
1205.32	0
1205.7	0
1206.08	0
1206.47	0
1206.85	0
1207.24	0
1207.62	0
1208	0
1208.39	0
1208.77	0
1209.16	0
1209.54	0
1209.92	0
1210.31	0
1210.69	0
1211.08	0
1211.46	0
1211.84	0
1212.23	0
1212.61	0
1213	0
1213.38	0
1213.76	0
1214.15	0
1214.53	0
1214.91	0
1215.3	0
1215.68	0
1216.06	0
1216.45	0
1216.83	0
1217.22	0
1217.6	0
1217.98	0
1218.37	0
1218.75	0
1219.13	0
1219.52	0
1219.9	0
1220.28	0
1220.67	0
1221.05	0
1221.43	0
1221.82	0
1222.2	0
1222.58	0
1222.97	0
1223.35	0
1223.73	0
1224.11	0
1224.5	0
1224.88	0
1225.26	0
1225.65	0
1226.03	0
1226.41	0
1226.8	0
1227.18	0
1227.56	0
1227.94	0
1228.33	0
1228.71	0
1229.09	0
1229.47	0
1229.86	0
1230.24	0
1230.62	0
1231.01	0
1231.39	0
1231.77	0
1232.15	0
1232.54	0
1232.92	0
1233.3	0
1233.68	0
1234.07	0
1234.45	0
1234.83	0
1235.21	0
1235.6	0
1235.98	0
1236.36	0
1236.74	0
1237.12	0
1237.51	0
1237.89	0
1238.27	0
1238.65	0
1239.04	0
1239.42	0
1239.8	0
1240.18	0
1240.56	0
1240.95	0
1241.33	0
1241.71	0
1242.09	0
1242.47	0
1242.86	0
1243.24	0
1243.62	0
1244	0
1244.38	0
1244.77	0
1245.15	0
1245.53	0
1245.91	0
1246.29	0
1246.67	0
1247.06	0
1247.44	0
1247.82	0
1248.2	0
1248.58	0
1248.96	0
1249.34	0
1249.73	0
1250.11	0
1250.49	0
1250.87	0
1251.25	0
1251.63	0
1252.01	0
1252.4	0
1252.78	0
1253.16	0
1253.54	0
1253.92	0
1254.3	0
1254.68	0
1255.06	0
1255.45	0
1255.83	0
1256.21	0
1256.59	0
1256.97	0
1257.35	0
1257.73	0
1258.11	0
1258.49	0
1258.87	0
1259.26	0
1259.64	0
1260.02	0
1260.4	0
1260.78	0
1261.16	0
1261.54	0
1261.92	0
1262.3	0
1262.68	0
1263.06	0
1263.44	0
1263.82	0
1264.21	0
1264.59	0
1264.97	0
1265.35	0
1265.73	0
1266.11	0
1266.49	0
1266.87	0
1267.25	0
1267.63	0
1268.01	0
1268.39	0
1268.77	0
1269.15	0
1269.53	0
1269.91	0
1270.29	0
1270.67	0
1271.05	0
1271.43	0
1271.81	0
1272.19	0
1272.57	0
1272.95	0
1273.33	0
1273.71	0
1274.09	0
1274.47	0
1274.85	0
1275.23	0
1275.61	0
1275.99	0
1276.37	0
1276.75	0
1277.13	0
1277.51	0
1277.89	0
1278.27	0
1278.65	0
1279.03	0
1279.41	0
1279.79	0
1280.17	0
1280.55	0
1280.93	0
1281.31	0
1281.69	0
1282.07	0
1282.45	0
1282.82	0
1283.2	0
1283.58	0
1283.96	0
1284.34	0
1284.72	0
1285.1	0
1285.48	0
1285.86	0
1286.24	0
1286.62	0
1287	0
1287.38	0
1287.75	0
1288.13	0
1288.51	0
1288.89	0
1289.27	0
1289.65	0
1290.03	0
1290.41	0
1290.79	0
1291.17	0
1291.54	0
1291.92	0
1292.3	0
1292.68	0
1293.06	0
1293.44	0
1293.82	0
1294.2	0
1294.57	0
1294.95	0
1295.33	0
1295.71	0
1296.09	0
1296.47	0
1296.85	0
1297.22	0
1297.6	0
1297.98	0
1298.36	0
1298.74	0
1299.12	0
1299.5	0
1299.87	0
1300.25	0
1300.63	0
1301.01	0
1301.39	0
1301.77	0
1302.14	0
1302.52	0
1302.9	0
1303.28	0
1303.66	0
1304.03	0
1304.41	0
1304.79	0
1305.17	0
1305.55	0
1305.92	0
1306.3	0
1306.68	0
1307.06	0
1307.44	0
1307.81	0
1308.19	0
1308.57	0
1308.95	0
1309.32	0
1309.7	0
1310.08	0
1310.46	0
1310.84	0
1311.21	0
1311.59	0
1311.97	0
1312.35	0
1312.72	0
1313.1	0
1313.48	0
1313.86	0
1314.23	0
1314.61	0
1314.99	0
1315.37	0
1315.74	0
1316.12	0
1316.5	0
1316.87	0
1317.25	0
1317.63	0
1318.01	0
1318.38	0
1318.76	0
1319.14	0
1319.52	0
1319.89	0
1320.27	0
1320.65	0
1321.02	0
1321.4	0
1321.78	0
1322.15	0
1322.53	0
1322.91	0
1323.29	0
1323.66	0
1324.04	0
1324.42	0
1324.79	0
1325.17	0
1325.55	0
1325.92	0
1326.3	0
1326.68	0
1327.05	0
1327.43	0
1327.81	0
1328.18	0
1328.56	0
1328.94	0
1329.31	0
1329.69	0
1330.06	0
1330.44	0
1330.82	0
1331.19	0
1331.57	0
1331.95	0
1332.32	0
1332.7	0
1333.08	0
1333.45	0
1333.83	0
1334.2	0
1334.58	0
1334.96	0
1335.33	0
1335.71	0
1336.08	0
1336.46	0
1336.84	0
1337.21	0
1337.59	0
1337.96	0
1338.34	0
1338.72	0
1339.09	0
1339.47	0
1339.84	0
1340.22	0
1340.6	0
1340.97	0
1341.35	0
1341.72	0
1342.1	0
1342.47	0
1342.85	0
1343.23	0
1343.6	0
1343.98	0
1344.35	0
1344.73	0
1345.1	0
1345.48	0
1345.85	0
1346.23	0
1346.61	0
1346.98	0
1347.36	0
1347.73	0
1348.11	0
1348.48	0
1348.86	0
1349.23	0
1349.61	0
1349.98	0
1350.36	0
1350.73	0
1351.11	0
1351.48	0
1351.86	0
1352.23	0
1352.61	0
1352.98	0
1353.36	0
1353.73	0
1354.11	0
1354.48	0
1354.86	0
1355.23	0
1355.61	0
1355.98	0
1356.36	0
1356.73	0
1357.11	0
1357.48	0
1357.86	0
1358.23	0
1358.61	0
1358.98	0
1359.35	0
1359.73	0
1360.1	0
1360.48	0
1360.85	0
1361.23	0
1361.6	0
1361.98	0
1362.35	0
1362.72	0
1363.1	0
1363.47	0
1363.85	0
1364.22	0
1364.6	0
1364.97	0
1365.34	0
1365.72	0
1366.09	0
1366.47	0
1366.84	0
1367.22	0
1367.59	0
1367.96	0
1368.34	0
1368.71	0
1369.09	0.04
1369.46	-0.64
1369.83	-0.64
1370.21	-0.48
1370.58	-0.48
1370.96	-0.52
1371.33	0.28
1371.7	0.28
1372.08	0.28
1372.45	0.28
1372.82	0.28
1373.2	0.16
1373.57	0.16
1373.95	0
1374.32	0.2
1374.69	0.48
1375.07	0.72
1375.44	0.72
1375.81	1.08
1376.19	0.96
1376.56	0.68
1376.93	0.8
1377.31	0.8
1377.68	0.6
1378.05	0.52
1378.43	0.52
1378.8	0.16
1379.17	0.52
1379.55	0.44
1379.92	0.44
1380.29	0.44
1380.67	0.44
1381.04	0.08
1381.41	0
1381.79	0
1382.16	0.04
1382.53	0.04
1382.91	-0.96
1383.28	-0.84
1383.65	-0.76
1384.03	-0.8
1384.4	-0.64
1384.77	0.48
1385.14	0.48
1385.52	0.92
1385.89	1.28
1386.26	1.28
1386.64	1.32
1387.01	1.2
1387.38	0.72
1387.75	0.36
1388.13	0.24
1388.5	0.16
1388.87	0.36
1389.25	0.32
1389.62	0.12
1389.99	-0.12
1390.36	-0.2
1390.74	-0.36
1391.11	-0.16
1391.48	0.04
1391.85	0.24
1392.23	0.24
1392.6	0.28
1392.97	0.08
1393.34	0.24
1393.72	0.32
1394.09	0.36
1394.46	0.28
1394.83	0.28
1395.21	0.16
1395.58	0.08
1395.95	0.04
1396.32	0.32
1396.69	0.32
1397.07	0.4
1397.44	0.4
1397.81	0.4
1398.18	0.12
1398.55	0.32
1398.93	0.2
1399.3	0.2
1399.67	0.2
1400.04	0.2
1400.41	0
1400.79	0
1401.16	0.08
1401.53	0.24
1401.9	0.24
1402.27	0.24
1402.65	0.24
1403.02	0.16
1403.39	0
1403.76	-0.28
1404.13	-0.12
1404.51	-0.12
1404.88	-0.12
1405.25	-0.04
1405.62	0.24
1405.99	0.08
1406.36	0.08
1406.74	0.4
1407.11	0.32
1407.48	0.32
1407.85	-0.88
1408.22	-0.88
1408.59	-1.12
1408.96	-1.12
1409.34	-0.76
1409.71	0.44
1410.08	0.44
1410.45	0.56
1410.82	0.6
1411.19	0.48
1411.56	0.8
1411.93	0.8
1412.31	0.6
1412.68	0.72
1413.05	0.48
1413.42	0.16
1413.79	0.32
1414.16	0.12
1414.53	-0.04
1414.9	-0.24
1415.27	-0.04
1415.65	0.08
1416.02	0.44
1416.39	0.52
1416.76	0.72
1417.13	0.52
1417.5	0.24
1417.87	0.24
1418.24	0.24
1418.61	0.32
1418.98	0.32
1419.35	0.56
1419.73	0.48
1420.1	0.4
1420.47	0.32
1420.84	0.52
1421.21	0.36
1421.58	0.28
1421.95	0.28
1422.32	0.28
1422.69	0.24
1423.06	0.16
1423.43	0.16
1423.8	0.16
1424.17	0.16
1424.54	0
1424.91	0.04
1425.28	0.04
1425.65	0.04
1426.02	0.16
1426.39	0.56
1426.76	-0.08
1427.14	-0.08
1427.51	-6.66107e-18
1427.88	-0.12
1428.25	-0.52
1428.62	0.12
1428.99	0.2
1429.36	0.12
1429.73	0.12
1430.1	0.2
1430.47	0.36
1430.84	0.28
1431.21	0.52
1431.58	0.52
1431.95	0.44
1432.32	0.12
1432.69	0.12
1433.06	-0.12
1433.43	-0.08
1433.8	0.04
1434.17	0.44
1434.54	0.44
1434.91	0.44
1435.28	0.4
1435.64	0.32
1436.01	-0.16
1436.38	-0.16
1436.75	-0.16
1437.12	-0.16
1437.49	-0.04
1437.86	0.24
1438.23	0.4
1438.6	0.4
1438.97	0.4
1439.34	0.24
1439.71	0.16
1440.08	0.12
1440.45	0.84
1440.82	0.24
1441.19	0.24
1441.56	0.24
1441.93	0.36
1442.3	-0.12
1442.67	-1.08
1443.03	-1.08
1443.4	-1.04
1443.77	-1.28
1444.14	-1.2
1444.51	0.48
1444.88	0.56
1445.25	0.56
1445.62	0.88
1445.99	0.6
1446.36	0.48
1446.73	0.4
1447.09	0.68
1447.46	0.6
1447.83	0.6
1448.2	0.72
1448.57	0.56
1448.94	0.32
1449.31	0.12
1449.68	0.12
1450.05	0.16
1450.41	0.32
1450.78	-0.16
1451.15	-0.16
1451.52	-0.08
1451.89	-0.24
1452.26	-0.24
1452.63	0.2
1453	0.16
1453.36	0.04
1453.73	0.56
1454.1	0.56
1454.47	0.52
1454.84	0.72
1455.21	0.76
1455.57	0.08
1455.94	0.2
1456.31	0.2
1456.68	-7.21672e-18
1457.05	0.04
1457.42	0.32
1457.78	0.4
1458.15	0.4
1458.52	0.4
1458.89	0.32
1459.26	0.24
1459.63	0.04
1459.99	0.2
1460.36	0.2
1460.73	0.2
1461.1	0.32
1461.47	0.32
1461.83	0.2
1462.2	0.64
1462.57	0.68
1462.94	0.52
1463.31	0.52
1463.67	0.48
1464.04	-0.04
1464.41	-0.08
1464.78	-0.68
1465.15	-0.32
1465.51	-0.24
1465.88	-0.16
1466.25	-0.04
1466.62	0.64
1466.98	0.28
1467.35	0.36
1467.72	0.44
1468.09	0.32
1468.46	0.4
1468.82	0.4
1469.19	0.64
1469.56	0.56
1469.93	0.6
1470.29	0.6
1470.66	0.6
1471.03	0.2
1471.4	0.24
1471.76	0.2
1472.13	0.48
1472.5	0.48
1472.86	0.48
1473.23	0.44
1473.6	0.76
1473.97	0.32
1474.33	0.32
1474.7	0.32
1475.07	0.44
1475.44	0.12
1475.8	-6.66107e-18
1476.17	-6.66107e-18
1476.54	0.04
1476.9	-0.08
1477.27	-0.08
1477.64	0.4
1478	0.44
1478.37	0.4
1478.74	0.52
1479.11	0.56
1479.47	0.48
1479.84	0.44
1480.21	0.48
1480.57	0.48
1480.94	0.8
1481.31	0.52
1481.67	0.52
1482.04	0.6
1482.41	0.76
1482.77	0.44
1483.14	0.44
1483.51	0.44
1483.87	0.44
1484.24	0.32
1484.61	0.28
1484.97	0.36
1485.34	0.36
1485.71	-0.76
1486.07	-0.48
1486.44	-0.48
1486.81	-0.52
1487.17	-0.52
1487.54	0.56
1487.9	0.12
1488.27	0.28
1488.64	0.04
1489	0.2
1489.37	0.44
1489.74	0.44
1490.1	0.28
1490.47	0.92
1490.83	0.76
1491.2	0.44
1491.57	0.44
1491.93	0.44
1492.3	0
1492.66	0
1493.03	0
1493.4	0.12
1493.76	0.12
1494.13	0.12
1494.49	0.12
1494.86	0.12
1495.23	0.12
1495.59	0.48
1495.96	-0.92
1496.32	-0.92
1496.69	-0.88
1497.06	-1
1497.42	-2.08
1497.79	-0.64
1498.15	-0.64
1498.52	-0.68
1498.88	-0.68
1499.25	0.04
1499.62	-0.32
1499.98	-0.32
1500.35	0.04
1500.71	0.2
1501.08	0.24
1501.44	0.56
1501.81	0.56
1502.17	0.2
1502.54	0.08
1502.9	0.04
1503.27	0.04
1503.64	0.2
1504	0.48
1504.37	0.44
1504.73	0.56
1505.1	0.92
1505.46	0.92
1505.83	0.64
1506.19	0.64
1506.56	0.68
1506.92	0.32
1507.29	0.24
1507.65	0.24
1508.02	0.24
1508.38	0.24
1508.75	0.44
1509.11	0.4
1509.48	0.4
1509.84	0.4
1510.21	0.24
1510.57	0.08
1510.94	0.04
1511.3	0.16
1511.67	0.16
1512.03	0.16
1512.4	0.36
1512.76	0.72
1513.13	-0.4
1513.49	-0.36
1513.85	0.04
1514.22	0.2
1514.58	-0.16
1514.95	0.84
1515.31	0.8
1515.68	0.64
1516.04	0.24
1516.41	0.24
1516.77	0.4
1517.14	0.4
1517.5	0.16
1517.86	0.28
1518.23	0.32
1518.59	0.16
1518.96	0.36
1519.32	0.4
1519.69	0.68
1520.05	0.64
1520.41	0.84
1520.78	0.64
1521.14	0.6
1521.51	0.2
1521.87	0.2
1522.24	0
1522.6	0
1522.96	0.28
1523.33	0.48
1523.69	0.64
1524.06	0.88
1524.42	0.88
1524.78	0.72
1525.15	0.6
1525.51	0.68
1525.88	0.48
1526.24	0.52
1526.6	0.4
1526.97	0.32
1527.33	0.08
1527.69	0.12
1528.06	0.16
1528.42	0.2
1528.79	0.96
1529.15	0.24
1529.51	0.16
1529.88	0.2
1530.24	0.16
1530.6	-0.56
1530.97	0.36
1531.33	0.36
1531.69	0.24
1532.06	0.32
1532.42	0.4
1532.78	0.2
1533.15	0.28
1533.51	0.28
1533.87	0.2
1534.24	0.32
1534.6	0.36
1534.96	0.52
1535.33	0.52
1535.69	0.52
1536.05	0.52
1536.42	0.52
1536.78	0.52
1537.14	0.52
1537.51	0.56
1537.87	0.32
1538.23	0.28
1538.6	0.16
1538.96	0.28
1539.32	0.24
1539.68	0.24
1540.05	0.24
1540.41	0.12
1540.77	0.08
1541.14	0.16
1541.5	0.28
1541.86	0.28
1542.23	0.44
1542.59	0.36
1542.95	0.44
1543.31	0.56
1543.68	0.56
1544.04	0.4
1544.4	0.6
1544.76	1.04
1545.13	0.8
1545.49	0.8
1545.85	0.88
1546.21	0.68
1546.58	0.08
1546.94	0.08
1547.3	0.32
1547.66	0.24
1548.03	0.32
1548.39	0.32
1548.75	0.32
1549.11	0.32
1549.48	0.36
1549.84	0.28
1550.2	0.28
1550.56	0.32
1550.93	0.24
1551.29	0.4
1551.65	0.4
1552.01	0.4
1552.37	0.52
1552.74	0.36
1553.1	0.16
1553.46	0.16
1553.82	0.16
1554.18	0.2
1554.55	0.2
1554.91	0.24
1555.27	0.24
1555.63	0.68
1555.99	0.92
1556.36	0.92
1556.72	-0.72
1557.08	-0.72
1557.44	-0.92
1557.8	-1.32
1558.17	-1.32
1558.53	0.52
1558.89	0.52
1559.25	0.28
1559.61	0.24
1559.97	0.36
1560.34	0.12
1560.7	0.24
1561.06	0.32
1561.42	0.36
1561.78	0.4
1562.14	0.08
1562.5	0.04
1562.87	-0.04
1563.23	0.12
1563.59	-0.44
1563.95	-0.12
1564.31	-0.2
1564.67	0.04
1565.03	-0.12
1565.4	0.28
1565.76	0.28
1566.12	0.32
1566.48	0.12
1566.84	0.24
1567.2	0.24
1567.56	0.04
1567.92	0.12
1568.29	0.32
1568.65	0.44
1569.01	0.44
1569.37	0.24
1569.73	0.16
1570.09	0.32
1570.45	0.08
1570.81	0.08
1571.17	0.48
1571.53	0.72
1571.89	0.4
1572.26	0.72
1572.62	0.84
1572.98	0.84
1573.34	0.56
1573.7	0.68
1574.06	0.32
1574.42	0.2
1574.78	0.24
1575.14	0.32
1575.5	0.12
1575.86	-0.68
1576.22	-0.68
1576.58	-0.68
1576.94	-0.72
1577.3	-0.24
1577.67	0.56
1578.03	0.56
1578.39	0.56
1578.75	0.64
1579.11	0.6
1579.47	0.6
1579.83	0.6
1580.19	0.56
1580.55	0.6
1580.91	0.16
1581.27	0.28
1581.63	0.44
1581.99	0.44
1582.35	0.28
1582.71	0.28
1583.07	0.24
1583.43	0.08
1583.79	0.44
1584.15	0.44
1584.51	0.52
1584.87	0.52
1585.23	0.56
1585.59	0.36
1585.95	0.36
1586.31	0.28
1586.67	0.44
1587.03	0.4
1587.39	0.24
1587.75	0.28
1588.11	0.56
1588.47	0.32
1588.83	0.32
1589.19	0.32
1589.55	0.32
1589.91	0.24
1590.27	0.24
1590.63	0.36
1590.99	0.4
1591.35	0.36
1591.71	0.24
1592.07	0.28
1592.42	0.4
1592.78	0.36
1593.14	0.36
1593.5	0.44
1593.86	0.6
1594.22	0.36
1594.58	0.36
1594.94	0.76
1595.3	0.64
1595.66	1.16
1596.02	1.16
1596.38	1.28
1596.74	1.04
1597.1	1
1597.46	0.28
1597.81	0.32
1598.17	0.24
1598.53	0.52
1598.89	0.56
1599.25	0.56
1599.61	0.6
1599.97	0.92
1600.33	0.48
1600.69	0.44
1601.05	0.88
1601.4	0.92
1601.76	0.32
1602.12	0.32
1602.48	0.48
1602.84	0.08
1603.2	-0.04
1603.56	0.2
1603.92	0.2
1604.28	0.04
1604.63	0
1604.99	0.28
1605.35	0.36
1605.71	0.84
1606.07	0.84
1606.43	0.92
1606.79	0.76
1607.14	0.68
1607.5	0.44
1607.86	0.44
1608.22	0.4
1608.58	0.48
1608.94	0.56
1609.29	0.32
1609.65	0.2
1610.01	0.28
1610.37	0.12
1610.73	0.16
1611.09	0.52
1611.44	0.64
1611.8	0.52
1612.16	0.88
1612.52	0.8
1612.88	0.76
1613.24	0.76
1613.59	0.76
1613.95	0.36
1614.31	0.56
1614.67	0.24
1615.03	0.24
1615.38	0.24
1615.74	0.52
1616.1	0.56
1616.46	0.68
1616.82	0.88
1617.17	0.88
1617.53	0.6
1617.89	0.36
1618.25	0.32
1618.6	0.12
1618.96	0.16
1619.32	0.48
1619.68	0.44
1620.04	0.36
1620.39	0.16
1620.75	0.24
1621.11	-0.08
1621.47	-0.08
1621.82	0.48
1622.18	0.8
1622.54	0.8
1622.9	0.88
1623.25	-0.08
1623.61	-0.64
1623.97	-0.76
1624.33	-0.88
1624.68	-1.16
1625.04	-0.08
1625.4	-6.66107e-18
1625.75	-0.32
1626.11	-0.2
1626.47	0.04
1626.83	0.12
1627.18	0.08
1627.54	0.4
1627.9	0.48
1628.26	0.44
1628.61	0.24
1628.97	0.2
1629.33	0.2
1629.68	0
1630.04	0.16
1630.4	-0.36
1630.75	-0.16
1631.11	-0.08
1631.47	-0.28
1631.83	-0.4
1632.18	0.4
1632.54	0.32
1632.9	0.48
1633.25	0.68
1633.61	0.76
1633.97	0.48
1634.32	0.36
1634.68	0.24
1635.04	0.24
1635.39	0.12
1635.75	0.16
1636.11	0.36
1636.46	0.52
1636.82	0.64
1637.18	0.8
1637.53	0.84
1637.89	0.76
1638.25	0.8
1638.6	0.8
1638.96	0.64
1639.31	0.56
1639.67	0.52
1640.03	0.32
1640.38	0.2
1640.74	0.4
1641.1	0.6
1641.45	0.56
1641.81	0.56
1642.16	0.68
1642.52	0.48
1642.88	0.88
1643.23	0.44
1643.59	0.44
1643.95	0.32
1644.3	0.4
1644.66	-0.2
1645.01	0.2
1645.37	0.28
1645.73	0.88
1646.08	0.96
1646.44	0.96
1646.79	0.52
1647.15	0.4
1647.51	-0.2
1647.86	-0.28
1648.22	-0.28
1648.57	-0.6
1648.93	-0.56
1649.28	-0.56
1649.64	-0.36
1650	-0.28
1650.35	0.6
1650.71	0.68
1651.06	0.76
1651.42	0.68
1651.77	0.76
1652.13	0.92
1652.48	0.84
1652.84	0.76
1653.2	0.72
1653.55	0.8
1653.91	0.8
1654.26	0.68
1654.62	1
1654.97	0.84
1655.33	0.8
1655.68	0.56
1656.04	1.16
1656.39	0.88
1656.75	0.88
1657.1	0.84
1657.46	0.88
1657.81	0.44
1658.17	0.56
1658.52	0.56
1658.88	0.56
1659.23	0.52
1659.59	0.84
1659.94	0.68
1660.3	0.92
1660.65	1.04
1661.01	1.4
1661.36	0.96
1661.72	1.12
1662.07	0.88
1662.43	0.68
1662.78	0.32
1663.14	0.28
1663.49	0.12
1663.85	0.16
1664.2	0.6
1664.56	0.88
1664.91	-0.52
1665.27	-0.48
1665.62	-0.44
1665.98	-0.84
1666.33	-0.92
1666.69	0.48
1667.04	0.8
1667.39	1
1667.75	1.84
1668.1	2.12
1668.46	2.64
1668.81	2.48
1669.17	2.32
1669.52	1.36
1669.88	0.88
1670.23	0.48
1670.58	0.96
1670.94	1.12
1671.29	1.24
1671.65	1.72
1672	2.04
1672.36	1.72
1672.71	1.44
1673.06	1.6
1673.42	1.28
1673.77	1.16
1674.13	0.84
1674.48	0.92
1674.83	1.32
1675.19	1.12
1675.54	1.16
1675.9	1.28
1676.25	1.32
1676.6	0.8
1676.96	1.12
1677.31	0.88
1677.67	0.84
1678.02	0.76
1678.37	0.68
1678.73	0.48
1679.08	0.48
1679.43	0.68
1679.79	0.8
1680.14	1.36
1680.5	0.68
1680.85	0.6
1681.2	0.68
1681.56	0.52
1681.91	1.17683e-16
1682.26	0.56
1682.62	0.92
1682.97	0.6
1683.32	0.8
1683.68	0.76
1684.03	1.24
1684.38	0.96
1684.74	0.92
1685.09	1.12
1685.44	0.88
1685.8	0.92
1686.15	1.52
1686.5	1.6
1686.86	1.28
1687.21	1.24
1687.56	1.2
1687.92	0.72
1688.27	0.68
1688.62	0.84
1688.98	1.4
1689.33	1.04
1689.68	0.8
1690.03	1.08
1690.39	0.96
1690.74	0.68
1691.09	0.84
1691.45	1.16
1691.8	0.96
1692.15	1
1692.5	1.64
1692.86	1.88
1693.21	1.88
1693.56	2
1693.92	3.24
1694.27	2.04
1694.62	1.52
1694.97	1.68
1695.33	1.52
1695.68	0.56
1696.03	1.52
1696.38	1.68
1696.74	1.8
1697.09	1.68
1697.44	1.48
1697.79	1.28
1698.15	1.28
1698.5	0.84
1698.85	0.88
1699.2	0.08
1699.56	0.24
1699.91	0.88
1700.26	0.96
1700.61	0.92
1700.97	1.52
1701.32	1.08
1701.67	0.68
1702.02	0.44
1702.37	1
1702.73	1.04
1703.08	1.12
1703.43	1
1703.78	1.2
1704.13	0.84
1704.49	1.2
1704.84	1.12
1705.19	0.96
1705.54	0.84
1705.89	0.64
1706.25	0.28
1706.6	0.36
1706.95	0.8
1707.3	0.84
1707.65	0.84
1708.01	1.08
1708.36	1.2
1708.71	0.64
1709.06	0.72
1709.41	1.12
1709.76	0.8
1710.12	0.68
1710.47	0.84
1710.82	0.92
1711.17	0.68
1711.52	0.88
1711.87	0.88
1712.23	0.72
1712.58	0.8
1712.93	0.68
1713.28	0.48
1713.63	0.64
1713.98	0.64
1714.33	0.28
1714.69	0.24
1715.04	0.24
1715.39	0.24
1715.74	0.24
1716.09	0.72
1716.44	0.72
1716.79	0.72
1717.14	0.56
1717.5	0.56
1717.85	0.08
1718.2	0.16
1718.55	0.28
1718.9	0.72
1719.25	0.76
1719.6	0.76
1719.95	0.88
1720.3	0.84
1720.65	0.32
1721.01	0.56
1721.36	0.56
1721.71	0.36
1722.06	-0.32
1722.41	-0.32
1722.76	-0.36
1723.11	-0.36
1723.46	-6.88468e-17
1723.81	0.8
1724.16	0.88
1724.51	0.72
1724.86	0.72
1725.21	0.72
1725.56	0.56
1725.92	0.72
1726.27	1
1726.62	1.12
1726.97	0.84
1727.32	0.64
1727.67	0.52
1728.02	0.28
1728.37	0.16
1728.72	0.84
1729.07	1.4
1729.42	1.8
1729.77	1.68
1730.12	1.88
1730.47	1.48
1730.82	1.68
1731.17	1.52
1731.52	2
1731.87	2.76
1732.22	2.84
1732.57	2.24
1732.92	2.4
1733.27	2.52
1733.62	1.72
1733.97	2.76
1734.32	3.2
1734.67	3
1735.02	2.68
1735.37	3.28
1735.72	2.72
1736.07	3.44
1736.42	4.28
1736.77	5.16
1737.12	5.64
1737.47	5.36
1737.82	4.8
1738.17	5.24
1738.52	4.4
1738.87	4.12
1739.22	4.16
1739.57	5.12
1739.92	4.76
1740.27	6.08
1740.62	6.84
1740.97	6.88
1741.32	7.36
1741.67	7.6
1742.02	7.68
1742.37	7.16
1742.72	7.6
1743.06	7.12
1743.41	7.4
1743.76	7.16
1744.11	6.16
1744.46	6.48
1744.81	7.52
1745.16	6.96
1745.51	7.2
1745.86	9.88
1746.21	9.64
1746.56	8.32
1746.91	8.32
1747.26	8.68
1747.6	9
1747.95	10.28
1748.3	10.92
1748.65	11.28
1749	11.56
1749.35	10.2
1749.7	9.32
1750.05	9.32
1750.4	8.8
1750.75	7.52
1751.09	7.72
1751.44	7.84
1751.79	7.12
1752.14	7.2
1752.49	7.8
1752.84	7.68
1753.19	7.36
1753.54	7.68
1753.88	9.04
1754.23	8.72
1754.58	9.72
1754.93	10
1755.28	10.52
1755.63	9.44
1755.98	8.8
1756.32	7.84
1756.67	7.76
1757.02	7.16
1757.37	8.08
1757.72	8.72
1758.07	8.32
1758.42	8.08
1758.76	7.84
1759.11	7.04
1759.46	6.88
1759.81	7.56
1760.16	7.96
1760.5	8.24
1760.85	8.12
1761.2	8.24
1761.55	7
1761.9	7.2
1762.25	6.92
1762.59	6.56
1762.94	6.68
1763.29	6.88
1763.64	6.84
1763.99	6.68
1764.33	6.4
1764.68	5.36
1765.03	6.32
1765.38	5.6
1765.73	6.48
1766.07	6.32
1766.42	6.44
1766.77	4.96
1767.12	4.16
1767.46	2.8
1767.81	2.96
1768.16	2.72
1768.51	2.56
1768.85	3.16
1769.2	3.12
1769.55	2.64
1769.9	2.6
1770.25	2.16
1770.59	1.76
1770.94	1.24
1771.29	1.08
1771.64	1.12
1771.98	1.2
1772.33	0.96
1772.68	1
1773.02	1
1773.37	0.72
1773.72	1
1774.07	0.68
1774.41	0.72
1774.76	0.64
1775.11	0.88
1775.46	0.44
1775.8	0.48
1776.15	0.6
1776.5	0.6
1776.84	0.52
1777.19	0.76
1777.54	0.88
1777.89	0.92
1778.23	0.88
1778.58	0.72
1778.93	0.48
1779.27	0.32
1779.62	0.32
1779.97	0.48
1780.31	0.48
1780.66	0.6
1781.01	0.52
1781.35	0.28
1781.7	0.16
1782.05	0.28
1782.39	0.64
1782.74	0.64
1783.09	0.92
1783.43	1
1783.78	1.04
1784.13	0.88
1784.47	0.32
1784.82	0.48
1785.17	0.36
1785.51	0.6
1785.86	0.6
1786.21	1.8
1786.55	1.36
1786.9	1.52
1787.25	1.48
1787.59	1.6
1787.94	1.56
1788.29	1.72
1788.63	2.12
1788.98	1.96
1789.32	1.72
1789.67	1.64
1790.02	1.84
1790.36	1.76
1790.71	2.28
1791.06	2.84
1791.4	3.24
1791.75	3.6
1792.09	4.04
1792.44	3.88
1792.79	2.96
1793.13	3.56
1793.48	5.36
1793.82	4.96
1794.17	4.08
1794.52	5.36
1794.86	4.8
1795.21	3.8
1795.55	3.96
1795.9	5.08
1796.24	7.52
1796.59	8.92
1796.94	9.76
1797.28	11.6
1797.63	12.04
1797.97	10.36
1798.32	9.56
1798.66	10.28
1799.01	10.68
1799.36	10.8
1799.7	11.28
1800.05	12.68
1800.39	11
1800.74	10.92
1801.08	15.4
1801.43	18.04
1801.77	17.88
1802.12	19.8
1802.46	21.24
1802.81	20.08
1803.15	18.2
1803.5	18.32
1803.85	18.4
1804.19	16.88
1804.54	16.96
1804.88	19.28
1805.23	19.16
1805.57	21.24
1805.92	25.32
1806.26	25.16
1806.61	23.24
1806.95	26.16
1807.3	31.96
1807.64	34.96
1807.99	38.88
1808.33	41.16
1808.68	39.6
1809.02	38.08
1809.37	40.08
1809.71	42.92
1810.06	45.8
1810.4	47.28
1810.75	41.68
1811.09	38.76
1811.43	40.32
1811.78	45.16
1812.12	50.76
1812.47	59.28
1812.81	60.16
1813.16	59.64
1813.5	57.92
1813.85	56.08
1814.19	54.24
1814.54	54.56
1814.88	48.92
1815.23	44.36
1815.57	39.92
1815.91	31
1816.26	27.44
1816.6	32.56
1816.95	34.24
1817.29	38.08
1817.64	46.84
1817.98	51.04
1818.32	55.24
1818.67	61.72
1819.01	65.2
1819.36	66.72
1819.7	67.2
1820.05	61.68
1820.39	60.28
1820.73	62.4
1821.08	60.92
1821.42	62.36
1821.77	64.6
1822.11	57.28
1822.45	49.92
1822.8	50.44
1823.14	44.76
1823.49	38.92
1823.83	49.44
1824.17	59.08
1824.52	61.68
1824.86	69.16
1825.2	74.88
1825.55	67.36
1825.89	60.2
1826.24	53.92
1826.58	52.28
1826.92	57.04
1827.27	58.92
1827.61	61
1827.95	67.76
1828.3	65.6
1828.64	57.96
1828.98	56.16
1829.33	50.64
1829.67	49.2
1830.02	55.2
1830.36	58.64
1830.7	62.8
1831.05	74
1831.39	77.12
1831.73	75.24
1832.08	78.36
1832.42	77.96
1832.76	71.52
1833.1	69.2
1833.45	66.28
1833.79	58.48
1834.13	54.24
1834.48	55.2
1834.82	52.36
1835.16	54.32
1835.51	55.44
1835.85	54.8
1836.19	53.68
1836.54	52.08
1836.88	44.48
1837.22	39.76
1837.56	35.04
1837.91	29.48
1838.25	31.92
1838.59	39.12
1838.94	43.36
1839.28	49.08
1839.62	50.44
1839.96	47.88
1840.31	41.88
1840.65	38.12
1840.99	32.92
1841.34	38.72
1841.68	44.6
1842.02	47.76
1842.36	54.2
1842.71	59.24
1843.05	50.64
1843.39	43.64
1843.73	46.72
1844.08	47.92
1844.42	52.76
1844.76	64.24
1845.1	68.4
1845.45	62.36
1845.79	59.32
1846.13	54.76
1846.47	49.92
1846.81	45.4
1847.16	45.64
1847.5	44.32
1847.84	48.88
1848.18	52.28
1848.53	55.4
1848.87	60.36
1849.21	63.04
1849.55	59.12
1849.89	54.32
1850.24	53.28
1850.58	48.8
1850.92	46.36
1851.26	44.2
1851.6	43.64
1851.95	42.32
1852.29	42.84
1852.63	41.48
1852.97	40.8
1853.31	39.32
1853.66	35.24
1854	32.16
1854.34	31.72
1854.68	32.92
1855.02	35.6
1855.36	40
1855.71	40.12
1856.05	39.2
1856.39	37.36
1856.73	32
1857.07	27.88
1857.41	27.36
1857.76	25.84
1858.1	25.72
1858.44	28.2
1858.78	27.6
1859.12	27.28
1859.46	28.44
1859.8	25.2
1860.15	22.32
1860.49	21.92
1860.83	22.56
1861.17	24.84
1861.51	25.92
1861.85	25.84
1862.19	25.56
1862.53	23.88
1862.88	20.32
1863.22	20.16
1863.56	21.28
1863.9	20.96
1864.24	22.64
1864.58	22.92
1864.92	22.36
1865.26	23.88
1865.6	24.48
1865.94	20.92
1866.29	18.92
1866.63	16.92
1866.97	12.72
1867.31	10.76
1867.65	9.72
1867.99	8.6
1868.33	9.12
1868.67	7.36
1869.01	6.72
1869.35	7.44
1869.69	10
1870.03	11.4
1870.37	14.28
1870.72	16.48
1871.06	17.08
1871.4	14.92
1871.74	12.48
1872.08	10.8
1872.42	9.72
1872.76	9.84
1873.1	10.92
1873.44	11.68
1873.78	10.56
1874.12	9.44
1874.46	7.72
1874.8	6.56
1875.14	7.8
1875.48	9.64
1875.82	10.44
1876.16	11.8
1876.5	12.72
1876.84	11.6
1877.18	11.2
1877.52	11
1877.86	9.68
1878.2	7.24
1878.54	5.28
1878.88	5.24
1879.22	5.16
1879.56	5.08
1879.9	4.44
1880.24	5
1880.58	3.08
1880.92	2.2
1881.26	1.52
1881.6	2.24
1881.94	1.4
1882.28	1.44
1882.62	1.48
1882.96	2.96
1883.3	3.56
1883.64	4.16
1883.98	5.08
1884.32	5.32
1884.66	4.04
1885	3.36
1885.34	3.04
1885.68	2.68
1886.02	2.44
1886.36	2.84
1886.7	2.8
1887.04	2.96
1887.38	2.88
1887.72	2.28
1888.06	1.28
1888.39	0.76
1888.73	0.36
1889.07	0.52
1889.41	1
1889.75	0.72
1890.09	1
1890.43	1.12
1890.77	0.92
1891.11	1.44
1891.45	2.32
1891.79	2.28
1892.13	2.4
1892.47	1.96
1892.8	1.12
1893.14	0.8
1893.48	0.92
1893.82	0.64
1894.16	0.92
1894.5	1.32
1894.84	1.48
1895.18	1.12
1895.52	1.08
1895.86	1.24
1896.19	0.68
1896.53	0.52
1896.87	0.76
1897.21	0.8
1897.55	0.56
1897.89	0.52
1898.23	0.68
1898.57	0.44
1898.9	0.8
1899.24	0.84
1899.58	1.2
1899.92	1.04
1900.26	1.04
1900.6	0.64
1900.94	0.2
1901.27	-0.2
1901.61	0
1901.95	0.36
1902.29	0.56
1902.63	1
1902.97	1.24
1903.3	1.32
1903.64	0.96
1903.98	0.76
1904.32	0.52
1904.66	0.4
1905	0.12
1905.33	0.12
1905.67	0.24
1906.01	0.48
1906.35	0.36
1906.69	0.48
1907.02	0.56
1907.36	0.56
1907.7	0.32
1908.04	0.56
1908.38	0.76
1908.71	0.72
1909.05	0.8
1909.39	0.88
1909.73	0.64
1910.07	0.44
1910.4	0.48
1910.74	0.28
1911.08	0.2
1911.42	0.2
1911.76	0.08
1912.09	-0.2
1912.43	0.08
1912.77	0.24
1913.11	0.24
1913.44	0.48
1913.78	0.28
1914.12	0
1914.46	-0.16
1914.79	0.2
1915.13	1.05473e-17
1915.47	0.2
1915.81	0.2
1916.14	0.28
1916.48	2.10945e-17
1916.82	0.2
1917.16	-0.16
1917.49	0.32
1917.83	0.36
1918.17	0.28
1918.5	0.2
1918.84	0.84
1919.18	0.6
1919.52	0.48
1919.85	1.08
1920.19	1.2
1920.53	1.36
1920.87	1.24
1921.2	2.04
1921.54	1.56
1921.88	2.52
1922.21	2.52
1922.55	2.72
1922.89	1.92
1923.22	1.88
1923.56	0.88
1923.9	0.8
1924.23	1.12
1924.57	0.56
1924.91	0.88
1925.25	1.4
1925.58	2.12
1925.92	1.76
1926.26	2.84
1926.59	2.8
1926.93	2.76
1927.27	2.96
1927.6	2.76
1927.94	2.6
1928.28	3.2
1928.61	2.76
1928.95	2.52
1929.29	2.8
1929.62	2.96
1929.96	2.32
1930.29	2.92
1930.63	2.4
1930.97	2.76
1931.3	2.84
1931.64	3.48
1931.98	2.84
1932.31	2.04
1932.65	2.32
1932.99	2.8
1933.32	2.2
1933.66	2.72
1933.99	4.24
1934.33	4.12
1934.67	4.2
1935	4.84
1935.34	4.44
1935.67	4.76
1936.01	4.6
1936.35	4.36
1936.68	3.6
1937.02	3.48
1937.35	3.52
1937.69	4.88
1938.03	5
1938.36	4.2
1938.7	5.48
1939.03	5.16
1939.37	4.44
1939.7	4.36
1940.04	6.04
1940.38	5.56
1940.71	6.36
1941.05	6.8
1941.38	8.12
1941.72	9.16
1942.05	9.84
1942.39	9.88
1942.73	10.84
1943.06	11.08
1943.4	10.64
1943.73	10.76
1944.07	10.44
1944.4	9.6
1944.74	9.92
1945.07	10.16
1945.41	10.52
1945.74	11.84
1946.08	10.76
1946.42	9.8
1946.75	9.88
1947.09	10.2
1947.42	9
1947.76	11.24
1948.09	12.12
1948.43	12.72
1948.76	12.56
1949.1	13.2
1949.43	13
1949.77	11.84
1950.1	13.04
1950.44	13.32
1950.77	12.92
1951.11	13.48
1951.44	14.12
1951.78	13.96
1952.11	14.8
1952.45	15.68
1952.78	14.72
1953.12	16.96
1953.45	16.96
1953.79	15.92
1954.12	16.32
1954.46	16.84
1954.79	16.36
1955.12	15.68
1955.46	16.8
1955.79	17.28
1956.13	17.84
1956.46	16.92
1956.8	15.32
1957.13	15.84
1957.47	16.72
1957.8	15.92
1958.14	15.44
1958.47	16.72
1958.8	16.16
1959.14	14.64
1959.47	16.92
1959.81	17
1960.14	16.52
1960.48	16.24
1960.81	16
1961.14	15.32
1961.48	16.68
1961.81	16.92
1962.15	16.16
1962.48	17.12
1962.82	15.88
1963.15	15.88
1963.48	17.04
1963.82	18.24
1964.15	17.48
1964.49	17
1964.82	16.2
1965.15	15.72
1965.49	16.36
1965.82	15.84
1966.16	17.68
1966.49	17.64
1966.82	17.36
1967.16	16.68
1967.49	18.36
1967.83	15.88
1968.16	14.32
1968.49	13.28
1968.83	11.92
1969.16	9.52
1969.49	9.68
1969.83	11.88
1970.16	12.92
1970.49	13.64
1970.83	14.8
1971.16	15.84
1971.5	14.88
1971.83	14.8
1972.16	13.92
1972.5	13.36
1972.83	12.4
1973.16	12.6
1973.5	12.28
1973.83	11.92
1974.16	10.88
1974.5	11.48
1974.83	10.48
1975.16	9.68
1975.5	9.88
1975.83	9.2
1976.16	8.28
1976.49	8.04
1976.83	7.72
1977.16	7.08
1977.49	7.88
1977.83	7.84
1978.16	7.16
1978.49	7.2
1978.83	7.04
1979.16	6.92
1979.49	5.52
1979.83	6.28
1980.16	5.48
1980.49	5.04
1980.82	5.24
1981.16	5.36
1981.49	4.2
1981.82	4.88
1982.15	4.96
1982.49	5.08
1982.82	5.44
1983.15	5.48
1983.49	5.8
1983.82	6.04
1984.15	4.56
1984.48	4.52
1984.82	4.08
1985.15	2.84
1985.48	2.12
1985.81	2
1986.15	1.8
1986.48	1.72
1986.81	1.84
1987.14	2.28
1987.48	2.48
1987.81	2
1988.14	2.04
1988.47	1.72
1988.81	1.08
1989.14	0.84
1989.47	0.6
1989.8	0.28
1990.13	0.16
1990.47	0.44
1990.8	0.4
1991.13	0.4
1991.46	0.4
1991.79	0
1992.13	-0.84
1992.46	-0.84
1992.79	-0.72
1993.12	-0.72
1993.45	-0.72
1993.79	-0.24
1994.12	-0.24
1994.45	-0.08
1994.78	-0.04
1995.11	0.92
1995.45	0.88
1995.78	1.16
1996.11	1.12
1996.44	1.08
1996.77	0.52
1997.1	0.84
1997.44	0.56
1997.77	0.48
1998.1	1.24
1998.43	1.24
1998.76	1
1999.09	1
1999.43	-0.12
1999.76	-0.88
2000.09	-0.64
2000.42	-0.44
2000.75	-1.24
2001.08	-0.28
2001.41	-0.28
2001.75	-0.52
2002.08	-0.8
2002.41	0.12
2002.74	0.04
2003.07	0.2
2003.4	0.2
2003.73	0.48
2004.06	0.36
2004.4	0.56
2004.73	0.4
2005.06	0.2
2005.39	-0.08
2005.72	-0.08
2006.05	0
2006.38	0.4
2006.71	0.64
2007.04	0.72
2007.37	0.88
2007.71	0.88
2008.04	0.56
2008.37	0.72
2008.7	1.12
2009.03	1.2
2009.36	1.12
2009.69	1.08
2010.02	1
2010.35	0.88
2010.68	0.76
2011.01	1.36
2011.34	2.12
2011.67	2.36
2012.01	2.64
2012.34	2.88
2012.67	2.6
2013	2.48
2013.33	2.64
2013.66	2.8
2013.99	3.28
2014.32	3.64
2014.65	3.84
2014.98	4.72
2015.31	4.08
2015.64	3.56
2015.97	3.36
2016.3	2.8
2016.63	2.12
2016.96	2.44
2017.29	2.12
2017.62	1.76
2017.95	1.84
2018.28	1.68
2018.61	1.84
2018.94	3.08
2019.27	4.88
2019.6	5.08
2019.93	5.12
2020.26	5.4
2020.59	4.76
2020.92	4.04
2021.25	3.92
2021.58	5.16
2021.91	5.24
2022.24	6.32
2022.57	6.08
2022.9	6.8
2023.23	6.2
2023.56	6.08
2023.89	5.32
2024.22	5.04
2024.55	4.72
2024.88	3.96
2025.21	4.52
2025.54	5.24
2025.87	6.04
2026.2	6.6
2026.53	7.96
2026.86	7.36
2027.19	6.64
2027.52	5.96
2027.85	6.2
2028.18	6.68
2028.51	7.2
2028.84	7.2
2029.16	6.76
2029.49	6.84
2029.82	5.32
2030.15	4.8
2030.48	5.24
2030.81	5.6
2031.14	4.32
2031.47	4.8
2031.8	5.04
2032.13	4.48
2032.46	4.56
2032.79	5
2033.12	5.52
2033.44	5.8
2033.77	6.52
2034.1	6.92
2034.43	6.32
2034.76	5.08
2035.09	4.8
2035.42	4.88
2035.75	4
2036.08	5.24
2036.41	6.48
2036.73	7.2
2037.06	5.96
2037.39	5.72
2037.72	5.96
2038.05	5.68
2038.38	4.2
2038.71	4.52
2039.04	4.76
2039.36	3.56
2039.69	4
2040.02	3.96
2040.35	3.52
2040.68	4.28
2041.01	3.88
2041.34	2.4
2041.66	2.92
2041.99	3.56
2042.32	2.84
2042.65	3.56
2042.98	3.96
2043.31	3.4
2043.63	3
2043.96	2.92
2044.29	2.4
2044.62	1.72
2044.95	1.84
2045.28	2.32
2045.6	2.64
2045.93	2.8
2046.26	3.28
2046.59	3.2
2046.92	2.32
2047.24	1.88
2047.57	1.56
2047.9	1.56
2048.23	1.68
2048.56	2.08
2048.88	2.2
2049.21	2.04
2049.54	1.64
2049.87	1.36
2050.2	1.08
2050.52	0.84
2050.85	1.24
2051.18	1.2
2051.51	1.4
2051.83	1.44
2052.16	1.28
2052.49	0.92
2052.82	0.68
2053.15	0.48
2053.47	0.56
2053.8	0.72
2054.13	1
2054.46	1
2054.78	0.92
2055.11	1
2055.44	0.84
2055.77	0.72
2056.09	0.72
2056.42	0.72
2056.75	0.72
2057.08	0.96
2057.4	0.68
2057.73	0.96
2058.06	1
2058.38	0.6
2058.71	0.36
2059.04	0.36
2059.37	0.12
2059.69	0.2
2060.02	0.24
2060.35	0.24
2060.67	0.36
2061	0.32
2061.33	0.16
2061.66	0.12
2061.98	0.12
2062.31	0
2062.64	0.08
2062.96	0.08
2063.29	0.08
2063.62	0.08
2063.94	0.2
2064.27	0.12
2064.6	-0.68
2064.92	-0.68
2065.25	-0.64
2065.58	-0.76
2065.91	-0.56
2066.23	0.28
2066.56	0.28
2066.89	0.24
2067.21	0.4
2067.54	0.28
2067.87	0.24
2068.19	0.24
2068.52	0.64
2068.84	0.48
2069.17	0.76
2069.5	0.88
2069.82	0.88
2070.15	0.48
2070.48	0.48
2070.8	0.2
2071.13	0.6
2071.46	0.8
2071.78	0.84
2072.11	1.2
2072.43	1.24
2072.76	0.72
2073.09	0.72
2073.41	0.84
2073.74	0.64
2074.07	0.6
2074.39	0.72
2074.72	0.52
2075.04	0.56
2075.37	0.64
2075.7	0.56
2076.02	0.56
2076.35	1.04
2076.67	0.88
2077	0.64
2077.33	0.68
2077.65	0.64
2077.98	0.2
2078.3	0.44
2078.63	0.44
2078.95	0.92
2079.28	1.56
2079.61	1.04
2079.93	0.88
2080.26	1.08
2080.58	0.68
2080.91	0.16
2081.23	1.04
2081.56	0.92
2081.89	1.16
2082.21	1.04
2082.54	0.96
2082.86	0.56
2083.19	0.72
2083.51	0.28
2083.84	0.28
2084.16	0.16
2084.49	0.2
2084.81	0.08
2085.14	0.12
2085.46	0.32
2085.79	0.48
2086.12	0.64
2086.44	0.84
2086.77	0.96
2087.09	0.8
2087.42	1.08
2087.74	0.88
2088.07	0.72
2088.39	0.56
2088.72	0.76
2089.04	0.56
2089.37	0.6
2089.69	0.8
2090.02	0.88
2090.34	0.24
2090.67	0.24
2090.99	-1.96
2091.32	-2.12
2091.64	-2.2
2091.97	-1.4
2092.29	-1.48
2092.62	0.72
2092.94	0.6
2093.26	0.64
2093.59	1.28
2093.91	-0.08
2094.24	-0.12
2094.56	0.16
2094.89	0.12
2095.21	-0.56
2095.54	0.64
2095.86	0.8
2096.19	0.52
2096.51	0.76
2096.84	0.68
2097.16	0.68
2097.48	0.92
2097.81	1.04
2098.13	1.28
2098.46	0.6
2098.78	0.64
2099.11	0.32
2099.43	0.32
2099.75	-0.16
2100.08	0.28
2100.4	0.48
2100.73	0.56
2101.05	0.56
2101.38	0.56
2101.7	0.84
2102.02	0.84
2102.35	0.68
2102.67	0.56
2103	0.6
2103.32	0.28
2103.64	0.12
2103.97	0.12
2104.29	0.12
2104.62	0.28
2104.94	0.28
2105.26	-0.4
2105.59	-0.2
2105.91	0.24
2106.23	0.36
2106.56	0.44
2106.88	1.04
2107.21	1.04
2107.53	0.64
2107.85	0.44
2108.18	0.36
2108.5	0.4
2108.82	0.36
2109.15	0.68
2109.47	0.72
2109.79	0.72
2110.12	0.8
2110.44	0.64
2110.76	0.4
2111.09	0.32
2111.41	0.32
2111.73	0.2
2112.06	0.56
2112.38	0.56
2112.7	-0.12
2113.03	-0.12
2113.35	-0.12
2113.67	-0.48
2114	-0.56
2114.32	0.32
2114.64	0.96
2114.97	0.96
2115.29	1.24
2115.61	1.44
2115.94	1.24
2116.26	0.8
2116.58	0.8
2116.91	-0.44
2117.23	-0.12
2117.55	-0.2
2117.87	-0.4
2118.2	-0.28
2118.52	0.68
2118.84	0.12
2119.17	0.12
2119.49	0.92
2119.81	0.8
2120.13	1.12
2120.46	1.2
2120.78	0.2
2121.1	-0.52
2121.42	-0.52
2121.75	-0.84
2122.07	-0.92
2122.39	0.28
2122.72	0.36
2123.04	0.36
2123.36	0.48
2123.68	0.48
2124.01	0.32
2124.33	0.16
2124.65	0.36
2124.97	0.24
2125.29	0.4
2125.62	0.56
2125.94	0.88
2126.26	0.72
2126.58	0.96
2126.91	-0.16
2127.23	-0.12
2127.55	-0.28
2127.87	-0.2
2128.2	-0.44
2128.52	0.52
2128.84	0.52
2129.16	0.36
2129.48	0.44
2129.81	0.52
2130.13	0.76
2130.45	0.68
2130.77	0.72
2131.09	0.52
2131.42	0.44
2131.74	0.2
2132.06	0.16
2132.38	1
2132.7	1.08
2133.02	1.2
2133.35	1.32
2133.67	1.28
2133.99	0.52
2134.31	0.04
2134.63	-0.08
2134.96	0
2135.28	-6.66107e-18
2135.6	-0.12
2135.92	0.36
2136.24	0.36
2136.56	0.44
2136.88	0.48
2137.21	0.56
2137.53	0.48
2137.85	0.56
2138.17	-0.24
2138.49	-0.36
2138.81	-0.2
2139.13	0.08
2139.46	-2.88669e-17
2139.78	0.64
2140.1	0.84
2140.42	0.6
2140.74	0.4
2141.06	0.6
2141.38	0.52
2141.7	0.32
2142.03	0.72
2142.35	0.8
2142.67	0.88
2142.99	0.88
2143.31	1.12
2143.63	0.8
2143.95	1.16
2144.27	1
2144.59	1
2144.91	0.68
2145.24	0.84
2145.56	0.32
2145.88	0.28
2146.2	0.28
2146.52	0.72
2146.84	0.56
2147.16	0.56
2147.48	0.52
2147.8	0.52
2148.12	0.16
2148.44	0.56
2148.76	0.96
2149.08	0.92
2149.41	0.88
2149.73	0.88
2150.05	0.4
2150.37	0
2150.69	0.52
2151.01	0.52
2151.33	0.52
2151.65	0.52
2151.97	0.64
2152.29	0.16
2152.61	-0.24
2152.93	-0.04
2153.25	0.12
2153.57	0.08
2153.89	0.04
2154.21	0.04
2154.53	0.04
2154.85	0.16
2155.17	0.08
2155.49	-0.12
2155.81	0.28
2156.13	0.12
2156.45	1.44334e-17
2156.77	1.44334e-17
2157.09	0.24
2157.41	0.24
2157.73	0.2
2158.05	0.24
2158.37	0.4
2158.69	0.4
2159.01	0.64
2159.33	0.64
2159.65	0.48
2159.97	0.44
2160.29	0.4
2160.61	0.28
2160.93	0.32
2161.25	0.36
2161.57	0.6
2161.89	0.6
2162.21	0.56
2162.53	0.84
2162.85	0.16
2163.17	-0.2
2163.49	-0.12
2163.81	5.55112e-17
2164.13	-0.32
2164.45	0.52
2164.77	0.52
2165.08	0.64
2165.4	0.44
2165.72	0.44
2166.04	0.2
2166.36	0.48
2166.68	0.44
2167	0.52
2167.32	0.52
2167.64	0.52
2167.96	0.32
2168.28	0.16
2168.6	0.08
2168.92	0.44
2169.24	0.76
2169.55	0.68
2169.87	0.68
2170.19	0.68
2170.51	0.32
2170.83	0
2171.15	0.2
2171.47	0.28
2171.79	0.28
2172.11	0.28
2172.43	0.36
2172.74	0.16
2173.06	0.08
2173.38	0.28
2173.7	0.32
2174.02	0.24
2174.34	0.24
2174.66	0.32
2174.98	0.12
2175.29	0.08
2175.61	0.36
2175.93	0.36
2176.25	0.44
2176.57	0.44
2176.89	0.44
2177.21	0.44
2177.52	0.44
2177.84	0.28
2178.16	0.52
2178.48	0.52
2178.8	0.56
2179.12	0.56
2179.43	0.92
2179.75	-0.2
2180.07	-0.2
2180.39	-0.44
2180.71	-0.24
2181.03	-0.52
2181.34	0.36
2181.66	0.64
2181.98	0.6
2182.3	0.44
2182.62	0.44
2182.93	0.08
2183.25	0
2183.57	-0.04
2183.89	0.12
2184.21	0.2
2184.52	0.84
2184.84	0.68
2185.16	0.88
2185.48	0.68
2185.8	0.64
2186.11	0.36
2186.43	0.36
2186.75	0.16
2187.07	-0.12
2187.39	-1.04
2187.7	-0.76
2188.02	-1.36
2188.34	-1
2188.66	-0.72
2188.97	0.2
2189.29	-0.04
2189.61	0.6
2189.93	0.24
2190.24	0.72
2190.56	0.6
2190.88	0.8
2191.2	0.76
2191.51	0.8
2191.83	0.32
2192.15	0.32
2192.47	0.08
2192.78	0.36
2193.1	0.32
2193.42	0.56
2193.74	0.76
2194.05	0.76
2194.37	0.52
2194.69	0.52
2195	0.12
2195.32	0.08
2195.64	0.16
2195.96	0.08
2196.27	0.08
2196.59	-0.16
2196.91	-0.32
2197.22	-0.4
2197.54	-0.4
2197.86	-0.4
2198.18	0
2198.49	0.36
2198.81	0.52
2199.13	0.56
2199.44	0.64
2199.76	0.72
2200.08	0.4
2200.39	0.24
2200.71	0.2
2201.03	0.12
2201.34	0.08
2201.66	0.12
2201.98	0.16
2202.29	0.16
2202.61	0.16
2202.93	0.12
2203.24	0.16
2203.56	0.4
2203.88	0.4
2204.19	0.56
2204.51	0.64
2204.83	0.52
2205.14	0.24
2205.46	0.24
2205.78	0.12
2206.09	0.04
2206.41	-0.04
2206.72	1
2207.04	1
2207.36	0.56
2207.67	0.6
2207.99	0.76
2208.31	-0.16
2208.62	0.08
2208.94	0.48
2209.25	0.52
2209.57	1.12
2209.89	1.12
2210.2	0.88
2210.52	0.92
2210.83	0.84
2211.15	0.16
2211.47	0.04
2211.78	0.08
2212.1	-0.36
2212.41	-0.36
2212.73	-0.2
2213.05	-0.04
2213.36	-0.04
2213.68	0.48
2213.99	0.6
2214.31	0.52
2214.62	0.36
2214.94	0.32
2215.26	0.24
2215.57	0.12
2215.89	0.2
2216.2	0.32
2216.52	0.76
2216.83	0.88
2217.15	1.08
2217.46	1.28
2217.78	1.16
2218.1	0.72
2218.41	0.72
2218.73	0.92
2219.04	0.64
2219.36	0.68
2219.67	0.8
2219.99	0.64
2220.3	0.6
2220.62	0.52
2220.93	0.56
2221.25	0.44
2221.56	0.44
2221.88	0.24
2222.19	0.4
2222.51	0.32
2222.82	-0.68
2223.14	-0.28
2223.45	-0.04
2223.77	-0.2
2224.08	-0.12
2224.4	0.88
2224.71	0.56
2225.03	0.2
2225.34	0.28
2225.66	-1.12
2225.97	-1.12
2226.29	-1.2
2226.6	-1.08
2226.92	-1.12
2227.23	0.4
2227.55	0.56
2227.86	0.76
2228.18	0.6
2228.49	0.56
2228.81	0.48
2229.12	0.32
2229.44	0.24
2229.75	0.52
2230.07	1.32
2230.38	1.2
2230.69	1.4
2231.01	1.68
2231.32	1.4
2231.64	0.6
2231.95	0.76
2232.27	0.72
2232.58	0.32
2232.9	0.32
2233.21	0.4
2233.52	0.48
2233.84	0.64
2234.15	0.72
2234.47	0.96
2234.78	0.88
2235.1	0.64
2235.41	0.68
2235.72	0.64
2236.04	0.4
2236.35	0.4
2236.67	-0.2
2236.98	-0.56
2237.29	-0.44
2237.61	-0.32
2237.92	-0.32
2238.24	0.32
2238.55	0.32
2238.86	0.2
2239.18	0.6
2239.49	-0.2
2239.8	-0.12
2240.12	-0.12
2240.43	0.64
2240.75	0.16
2241.06	1.52
2241.37	1.4
2241.69	1.44
2242	0.68
2242.31	0.64
2242.63	0.36
2242.94	0.44
2243.26	-0.2
2243.57	0.2
2243.88	0.2
2244.2	-0.04
2244.51	-0.04
2244.82	0.56
2245.14	0.12
2245.45	0.36
2245.76	0.32
2246.08	0.32
2246.39	0.32
2246.7	0.32
2247.02	0.08
2247.33	0.2
2247.64	0.12
2247.96	0.2
2248.27	0.2
2248.58	-0.72
2248.9	-0.68
2249.21	-0.68
2249.52	-0.68
2249.83	-0.68
2250.15	0.24
2250.46	0.16
2250.77	0.36
2251.09	0.36
2251.4	0.64
2251.71	0.72
2252.03	0.64
2252.34	0.52
2252.65	0.48
2252.96	0.2
2253.28	0.16
2253.59	0.16
2253.9	0.08
2254.21	0.04
2254.53	0.04
2254.84	-0.28
2255.15	-0.16
2255.47	4.2189e-17
2255.78	0.04
2256.09	0.12
2256.4	0.4
2256.72	0.72
2257.03	0.56
2257.34	0.72
2257.65	0.64
2257.97	0.64
2258.28	0.28
2258.59	0.56
2258.9	0.4
2259.22	0.4
2259.53	0.4
2259.84	0.32
2260.15	0.04
2260.46	0.12
2260.78	0.12
2261.09	0.12
2261.4	0.16
2261.71	0.16
2262.03	0.04
2262.34	0.04
2262.65	0.04
2262.96	0
2263.27	0
2263.59	0.12
2263.9	0.12
2264.21	0.2
2264.52	0.2
2264.83	0.2
2265.15	0.08
2265.46	0.12
2265.77	0.28
2266.08	0.28
2266.39	0.28
2266.7	0.28
2267.02	0.68
2267.33	0.04
2267.64	0.12
2267.95	0.12
2268.26	0.12
2268.57	2.88669e-17
2268.89	0.4
2269.2	0.44
2269.51	0.52
2269.82	0.52
2270.13	0.2
2270.44	0.2
2270.76	-0.32
2271.07	-0.16
2271.38	-0.76
2271.69	-0.76
2272	-0.76
2272.31	-0.44
2272.62	-1.48
2272.93	-0.84
2273.25	-0.72
2273.56	-0.6
2273.87	-0.52
2274.18	0.52
2274.49	0.52
2274.8	0.4
2275.11	0.44
2275.42	0.52
2275.74	0.28
2276.05	0.24
2276.36	0.24
2276.67	0.16
2276.98	0.16
2277.29	0.16
2277.6	0.16
2277.91	0.16
2278.22	-0.2
2278.53	-0.28
2278.85	-0.12
2279.16	-1.08
2279.47	-1.08
2279.78	-0.8
2280.09	-0.8
2280.4	-0.76
2280.71	0.24
2281.02	0.36
2281.33	0.36
2281.64	0.64
2281.95	0.56
2282.26	0.68
2282.57	0.64
2282.88	0.68
2283.19	0.4
2283.5	0.44
2283.82	0.64
2284.13	1.12
2284.44	1.08
2284.75	0.48
2285.06	0.32
2285.37	-0.04
2285.68	-0.44
2285.99	-0.44
2286.3	0.32
2286.61	0.32
2286.92	0.44
2287.23	0.56
2287.54	0.6
2287.85	0.8
2288.16	0.8
2288.47	0.72
2288.78	0.56
2289.09	0.68
2289.4	0.36
2289.71	0.44
2290.02	0.4
2290.33	0.48
2290.64	0.56
2290.95	0.4
2291.26	0.36
2291.57	0.44
2291.88	-0.16
2292.19	-0.16
2292.5	-0.04
2292.81	-0.08
2293.12	-0.16
2293.43	0.24
2293.74	0
2294.05	0
2294.36	0
2294.67	0
2294.98	0
2295.29	0
2295.6	0
2295.91	0
2296.21	0
2296.52	0
2296.83	0
2297.14	0
2297.45	0
2297.76	0
2298.07	0
2298.38	0
2298.69	0
2299	0
2299.31	0
2299.62	0
2299.93	0
2300.24	0
2300.55	0
2300.85	0
2301.16	0
2301.47	0
2301.78	0
2302.09	0
2302.4	0
2302.71	0
2303.02	0
2303.33	0
2303.64	0
2303.94	0
2304.25	0
2304.56	0
2304.87	0
2305.18	0
2305.49	0
2305.8	0
2306.11	0
2306.42	0
2306.72	0
2307.03	0
2307.34	0
2307.65	0
2307.96	0
2308.27	0
2308.58	0
2308.88	0
2309.19	0
2309.5	0
2309.81	0
2310.12	0
2310.43	0
2310.74	0
2311.04	0
2311.35	0
2311.66	0
2311.97	0
2312.28	0
2312.59	0
2312.89	0
2313.2	0
2313.51	0
2313.82	0
2314.13	0
2314.43	0
2314.74	0
2315.05	0
2315.36	0
2315.67	0
2315.97	0
2316.28	0
2316.59	0
2316.9	0
2317.21	0
2317.51	0
2317.82	0
2318.13	0
2318.44	0
2318.75	0
2319.05	0
2319.36	0
2319.67	0
2319.98	0
2320.28	0
2320.59	0
2320.9	0
2321.21	0
2321.51	0
2321.82	0
2322.13	0
2322.44	0
2322.74	0
2323.05	0
2323.36	0
2323.67	0
2323.97	0
2324.28	0
2324.59	0
2324.9	0
2325.2	0
2325.51	0
2325.82	0
2326.13	0
2326.43	0
2326.74	0
2327.05	0
2327.35	0
2327.66	0
2327.97	0
2328.27	0
2328.58	0
2328.89	0
2329.2	0
2329.5	0
2329.81	0
2330.12	0
2330.42	0
2330.73	0
2331.04	0
2331.34	0
2331.65	0
2331.96	0
2332.26	0
2332.57	0
2332.88	0
2333.18	0
2333.49	0
2333.8	0
2334.1	0
2334.41	0
2334.72	0
2335.02	0
2335.33	0
2335.64	0
2335.94	0
2336.25	0
2336.56	0
2336.86	0
2337.17	0
2337.48	0
2337.78	0
2338.09	0
2338.39	0
2338.7	0
2339.01	0
2339.31	0
2339.62	0
2339.93	0
2340.23	0
2340.54	0
2340.84	0
2341.15	0
2341.46	0
2341.76	0
2342.07	0
2342.37	0
2342.68	0
2342.99	0
2343.29	0
2343.6	0
2343.9	0
2344.21	0
2344.51	0
2344.82	0
2345.13	0
2345.43	0
2345.74	0
2346.04	0
2346.35	0
2346.65	0
2346.96	0
2347.27	0
2347.57	0
2347.88	0
2348.18	0
2348.49	0
2348.79	0
2349.1	0
2349.4	0
2349.71	0
2350.01	0
2350.32	0
2350.63	0
2350.93	0
2351.24	0
2351.54	0
2351.85	0
2352.15	0
2352.46	0
2352.76	0
2353.07	0
2353.37	0
2353.68	0
2353.98	0
2354.29	0
2354.59	0
2354.9	0
2355.2	0
2355.51	0
2355.81	0
2356.12	0
2356.42	0
2356.73	0
2357.03	0
2357.34	0
2357.64	0
2357.95	0
2358.25	0
2358.55	0
2358.86	0
2359.16	0
2359.47	0
2359.77	0
2360.08	0
2360.38	0
2360.69	0
2360.99	0
2361.3	0
2361.6	0
2361.9	0
2362.21	0
2362.51	0
2362.82	0
2363.12	0
2363.43	0
2363.73	0
2364.04	0
2364.34	0
2364.64	0
2364.95	0
2365.25	0
2365.56	0
2365.86	0
2366.16	0
2366.47	0
2366.77	0
2367.08	0
2367.38	0
2367.68	0
2367.99	0
2368.29	0
2368.6	0
2368.9	0
2369.2	0
2369.51	0
2369.81	0
2370.12	0
2370.42	0
2370.72	0
2371.03	0
2371.33	0
2371.63	0
2371.94	0
2372.24	0
2372.55	0
2372.85	0
2373.15	0
2373.46	0
2373.76	0
2374.06	0
2374.37	0
2374.67	0
2374.97	0
2375.28	0
2375.58	0
2375.88	0
2376.19	0
2376.49	0
2376.79	0
2377.1	0
2377.4	0
2377.7	0
2378.01	0
2378.31	0
2378.61	0
2378.92	0
2379.22	0
2379.52	0
2379.82	0
2380.13	0
2380.43	0
2380.73	0
2381.04	0
2381.34	0
2381.64	0
2381.95	0
2382.25	0
2382.55	0
2382.85	0
2383.16	0
2383.46	0
2383.76	0
2384.06	0
2384.37	0
2384.67	0
2384.97	0
2385.28	0
2385.58	0
2385.88	0
2386.18	0
2386.49	0
2386.79	0
2387.09	0
2387.39	0
2387.69	0
2388	0
2388.3	0
2388.6	0
2388.9	0
2389.21	0
2389.51	0
2389.81	0
2390.11	0
2390.42	0
2390.72	0
2391.02	0
2391.32	0
2391.62	0
2391.93	0
2392.23	0
2392.53	0
2392.83	0
2393.13	0
2393.44	0
2393.74	0
2394.04	0
2394.34	0
2394.64	0
2394.95	0
2395.25	0
2395.55	0
2395.85	0
2396.15	0
2396.45	0
2396.76	0
2397.06	0
2397.36	0
2397.66	0
2397.96	0
2398.26	0
2398.57	0
2398.87	0
2399.17	0
2399.47	0
2399.77	0
2400.07	0
2400.37	0
2400.68	0
2400.98	0
2401.28	0
2401.58	0
2401.88	0
2402.18	0
2402.48	0
2402.79	0
2403.09	0
2403.39	0
2403.69	0
2403.99	0
2404.29	0
2404.59	0
2404.89	0
2405.19	0
2405.5	0
2405.8	0
2406.1	0
2406.4	0
2406.7	0
2407	0
2407.3	0
2407.6	0
2407.9	0
2408.2	0
2408.5	0
2408.8	0
2409.11	0
2409.41	0
2409.71	0
2410.01	0
2410.31	0
2410.61	0
2410.91	0
2411.21	0
2411.51	0
2411.81	0
2412.11	0
2412.41	0
2412.71	0
2413.01	0
2413.31	0
2413.61	0
2413.91	0
2414.21	0
2414.51	0
2414.81	0
2415.12	0
2415.42	0
2415.72	0
2416.02	0
2416.32	0
2416.62	0
2416.92	0
2417.22	0
2417.52	0
2417.82	0
2418.12	0
2418.42	0
2418.72	0
2419.02	0
2419.32	0
2419.62	0
2419.92	0
2420.22	0
2420.52	0
2420.82	0
2421.12	0
2421.42	0
2421.71	0
2422.01	0
2422.31	0
2422.61	0
2422.91	0
2423.21	0
2423.51	0
2423.81	0
2424.11	0
2424.41	0
2424.71	0
2425.01	0
2425.31	0
2425.61	0
2425.91	0
2426.21	0
2426.51	0
2426.81	0
2427.11	0
2427.41	0
2427.7	0
2428	0
2428.3	0
2428.6	0
2428.9	0
2429.2	0
2429.5	0
2429.8	0
2430.1	0
2430.4	0
2430.7	0
2430.99	0
2431.29	0
2431.59	0
2431.89	0
2432.19	0
2432.49	0
2432.79	0
2433.09	0
2433.39	0
2433.68	0
2433.98	0
2434.28	0
2434.58	0
2434.88	0
2435.18	0
2435.48	0
2435.78	0
2436.07	0
2436.37	0
2436.67	0
2436.97	0
2437.27	0
2437.57	0
2437.86	0
2438.16	0
2438.46	0
2438.76	0
2439.06	0
2439.36	0
2439.66	0
2439.95	0
2440.25	0
2440.55	0
2440.85	0
2441.15	0
2441.44	0
2441.74	0
2442.04	0
2442.34	0
2442.64	0
2442.93	0
2443.23	0
2443.53	0
2443.83	0
2444.13	0
2444.42	0
2444.72	0
2445.02	0
2445.32	0
2445.62	0
2445.91	0
2446.21	0
2446.51	0
2446.81	0
2447.1	0
2447.4	0
2447.7	0
2448	0
2448.3	0
2448.59	0
2448.89	0
2449.19	0
2449.49	0
2449.78	0
2450.08	0
2450.38	0
2450.68	0
2450.97	0
2451.27	0
2451.57	0
2451.87	0
2452.16	0
2452.46	0
2452.76	0
2453.05	0
2453.35	0
2453.65	0
2453.95	0
2454.24	0
2454.54	0
2454.84	0
2455.13	0
2455.43	0
2455.73	0
2456.03	0
2456.32	0
2456.62	0
2456.92	0
2457.21	0
2457.51	0
2457.81	0
2458.1	0
2458.4	0
2458.7	0
2458.99	0
2459.29	0
2459.59	0
2459.88	0
2460.18	0
2460.48	0
2460.77	0
2461.07	0
2461.37	0
2461.66	0
2461.96	0
2462.26	0
2462.55	0
2462.85	0
2463.15	0
2463.44	0
2463.74	0
2464.04	0
2464.33	0
2464.63	0
2464.92	0
2465.22	0
2465.52	0
2465.81	0
2466.11	0
2466.41	0
2466.7	0
2467	0
2467.29	0
2467.59	0
2467.89	0
2468.18	0
2468.48	0
2468.77	0
2469.07	0
2469.37	0
2469.66	0
2469.96	0
2470.25	0
2470.55	0
2470.84	0
2471.14	0
2471.44	0
2471.73	0
2472.03	0
2472.32	0
2472.62	0
2472.91	0
2473.21	0
2473.51	0
2473.8	0
2474.1	0
2474.39	0
2474.69	0
2474.98	0
2475.28	0
2475.57	0
2475.87	0
2476.17	0
2476.46	0
2476.76	0
2477.05	0
2477.35	0
2477.64	0
2477.94	0
2478.23	0
2478.53	0
2478.82	0
2479.12	0
2479.41	0
2479.71	0
2480	0
2480.3	0
2480.59	0
2480.89	0
2481.18	0
2481.48	0
2481.77	0
2482.07	0
2482.36	0
2482.66	0
2482.95	0
2483.25	0
2483.54	0
2483.84	0
2484.13	0
2484.43	0
2484.72	0
2485.02	0
2485.31	0
2485.6	0
2485.9	0
2486.19	0
2486.49	0
2486.78	0
2487.08	0
2487.37	0
2487.67	0
2487.96	0
2488.26	0
2488.55	0
2488.84	0
2489.14	0
2489.43	0
2489.73	0
2490.02	0
2490.32	0
2490.61	0
2490.9	0
2491.2	0
2491.49	0
2491.79	0
2492.08	0
2492.37	0
2492.67	0
2492.96	0
2493.26	0
2493.55	0
2493.84	0
2494.14	0
2494.43	0
2494.73	0
2495.02	0
2495.31	0
2495.61	0
2495.9	0
2496.2	0
2496.49	0
2496.78	0
2497.08	0
2497.37	0
2497.66	0
2497.96	0
2498.25	0
2498.54	0
2498.84	0
2499.13	0
2499.43	0
2499.72	0
2500.01	0
2500.31	0
2500.6	0
2500.89	0
2501.19	0
2501.48	0
2501.77	0
2502.07	0
2502.36	0
2502.65	0
2502.95	0
2503.24	0
2503.53	0
2503.82	0
2504.12	0
2504.41	0
2504.7	0
2505	0
2505.29	0
2505.58	0
2505.88	0
2506.17	0
2506.46	0
2506.76	0
2507.05	0
2507.34	0
2507.63	0
2507.93	0
2508.22	0
2508.51	0
2508.8	0
2509.1	0
2509.39	0
2509.68	0
2509.98	0
2510.27	0
2510.56	0
2510.85	0
2511.15	0
2511.44	0
2511.73	0
2512.02	0
2512.32	0
2512.61	0
2512.9	0
2513.19	0
2513.49	0
2513.78	0
2514.07	0
2514.36	0
2514.65	0
2514.95	0
2515.24	0
2515.53	0
2515.82	0
2516.12	0
2516.41	0
2516.7	0
2516.99	0
2517.28	0
2517.58	0
2517.87	0
2518.16	0
2518.45	0
2518.74	0
2519.04	0
2519.33	0
2519.62	0
2519.91	0
2520.2	0
2520.5	0
2520.79	0
2521.08	0
2521.37	0
2521.66	0
2521.95	0
2522.25	0
2522.54	0
2522.83	0
2523.12	0
2523.41	0
2523.7	0
2523.99	0
2524.29	0
2524.58	0
2524.87	0
2525.16	0
2525.45	0
2525.74	0
2526.03	0
2526.33	0
2526.62	0
2526.91	0
2527.2	0
2527.49	0
2527.78	0
2528.07	0
2528.36	0
2528.66	0
2528.95	0
2529.24	0
2529.53	0
2529.82	0
2530.11	0
2530.4	0
2530.69	0
2530.98	0
2531.27	0
2531.57	0
2531.86	0
2532.15	0
2532.44	0
2532.73	0
2533.02	0
2533.31	0
2533.6	0
2533.89	0
2534.18	0
2534.47	0
2534.76	0
2535.05	0
2535.35	0
2535.64	0
2535.93	0
2536.22	0
2536.51	0
2536.8	0
2537.09	0
2537.38	0
2537.67	0
2537.96	0
2538.25	0
2538.54	0
2538.83	0
2539.12	0
2539.41	0
2539.7	0
2539.99	0
2540.28	0
2540.57	0
2540.86	0
2541.15	0
2541.44	0
2541.73	0
2542.02	0
2542.31	0
2542.6	0
2542.89	0
2543.18	0
2543.47	0
2543.76	0
2544.05	0
2544.34	0
2544.63	0
2544.92	0
2545.21	0
2545.5	0
2545.79	0
2546.08	0
2546.37	0
2546.66	0
2546.95	0
2547.24	0
2547.53	0
2547.82	0
2548.11	0
2548.4	0
2548.69	0
2548.98	0
2549.27	0
2549.55	0
2549.84	0
2550.13	0
2550.42	0
2550.71	0
2551	0
2551.29	0
2551.58	0
2551.87	0
2552.16	0
2552.45	0
2552.74	0
2553.03	0
2553.31	0
2553.6	0
2553.89	0
2554.18	0
2554.47	0
2554.76	0
2555.05	0
2555.34	0
2555.63	0
2555.92	0
2556.2	0
2556.49	0
2556.78	0
2557.07	0
2557.36	0
2557.65	0
2557.94	0
2558.23	0
2558.51	0
2558.8	0
2559.09	0
2559.38	0
2559.67	0
2559.96	0
2560.25	0
2560.53	0
2560.82	0
2561.11	0
2561.4	0
2561.69	0
2561.98	0
2562.27	0
2562.55	0
2562.84	0
2563.13	0
2563.42	0
2563.71	0
2564	0
2564.28	0
2564.57	0
2564.86	0
2565.15	0
2565.44	0
2565.72	0
2566.01	0
2566.3	0
2566.59	0
2566.88	0
2567.16	0
2567.45	0
2567.74	0
2568.03	0
2568.32	0
2568.6	0
2568.89	0
2569.18	0
2569.47	0
2569.75	0

