Source: Spectrum Viewer

Chart: Pulse Spectrum

Series: 
Wavelength (nm)	S (a.u.)
1179.9	0
1180.29	0
1180.68	0
1181.06	0
1181.45	0
1181.83	0
1182.22	0
1182.6	0
1182.99	0
1183.38	0
1183.76	0
1184.15	0
1184.53	0
1184.92	0
1185.3	0
1185.69	0
1186.07	0
1186.46	0
1186.85	0
1187.23	0
1187.62	0
1188	0
1188.39	0
1188.77	0
1189.16	0
1189.54	0
1189.93	0
1190.31	0
1190.7	0
1191.08	0
1191.47	0
1191.85	0
1192.24	0
1192.62	0
1193.01	0
1193.39	0
1193.78	0
1194.16	0
1194.55	0
1194.93	0
1195.32	0
1195.7	0
1196.09	0
1196.47	0
1196.86	0
1197.24	0
1197.63	0
1198.01	0
1198.4	0
1198.78	0
1199.16	0
1199.55	0
1199.93	0
1200.32	0
1200.7	0
1201.09	0
1201.47	0
1201.86	0
1202.24	0
1202.63	0
1203.01	0
1203.39	0
1203.78	0
1204.16	0
1204.55	0
1204.93	0
1205.32	0
1205.7	0
1206.08	0
1206.47	0
1206.85	0
1207.24	0
1207.62	0
1208	0
1208.39	0
1208.77	0
1209.16	0
1209.54	0
1209.92	0
1210.31	0
1210.69	0
1211.08	0
1211.46	0
1211.84	0
1212.23	0
1212.61	0
1213	0
1213.38	0
1213.76	0
1214.15	0
1214.53	0
1214.91	0
1215.3	0
1215.68	0
1216.06	0
1216.45	0
1216.83	0
1217.22	0
1217.6	0
1217.98	0
1218.37	0
1218.75	0
1219.13	0
1219.52	0
1219.9	0
1220.28	0
1220.67	0
1221.05	0
1221.43	0
1221.82	0
1222.2	0
1222.58	0
1222.97	0
1223.35	0
1223.73	0
1224.11	0
1224.5	0
1224.88	0
1225.26	0
1225.65	0
1226.03	0
1226.41	0
1226.8	0
1227.18	0
1227.56	0
1227.94	0
1228.33	0
1228.71	0
1229.09	0
1229.47	0
1229.86	0
1230.24	0
1230.62	0
1231.01	0
1231.39	0
1231.77	0
1232.15	0
1232.54	0
1232.92	0
1233.3	0
1233.68	0
1234.07	0
1234.45	0
1234.83	0
1235.21	0
1235.6	0
1235.98	0
1236.36	0
1236.74	0
1237.12	0
1237.51	0
1237.89	0
1238.27	0
1238.65	0
1239.04	0
1239.42	0
1239.8	0
1240.18	0
1240.56	0
1240.95	0
1241.33	0
1241.71	0
1242.09	0
1242.47	0
1242.86	0
1243.24	0
1243.62	0
1244	0
1244.38	0
1244.77	0
1245.15	0
1245.53	0
1245.91	0
1246.29	0
1246.67	0
1247.06	0
1247.44	0
1247.82	0
1248.2	0
1248.58	0
1248.96	0
1249.34	0
1249.73	0
1250.11	0
1250.49	0
1250.87	0
1251.25	0
1251.63	0
1252.01	0
1252.4	0
1252.78	0
1253.16	0
1253.54	0
1253.92	0
1254.3	0
1254.68	0
1255.06	0
1255.45	0
1255.83	0
1256.21	0
1256.59	0
1256.97	0
1257.35	0
1257.73	0
1258.11	0
1258.49	0
1258.87	0
1259.26	0
1259.64	0
1260.02	0
1260.4	0
1260.78	0
1261.16	0
1261.54	0
1261.92	0
1262.3	0
1262.68	0
1263.06	0
1263.44	0
1263.82	0
1264.21	0
1264.59	0
1264.97	0
1265.35	0
1265.73	0
1266.11	0
1266.49	0
1266.87	0
1267.25	0
1267.63	0
1268.01	0
1268.39	0
1268.77	0
1269.15	0
1269.53	0
1269.91	0
1270.29	0
1270.67	0
1271.05	0
1271.43	0
1271.81	0
1272.19	0
1272.57	0
1272.95	0
1273.33	0
1273.71	0
1274.09	0
1274.47	0
1274.85	0
1275.23	0
1275.61	0
1275.99	0
1276.37	0
1276.75	0
1277.13	0
1277.51	0
1277.89	0
1278.27	0
1278.65	0
1279.03	0
1279.41	0
1279.79	0
1280.17	0
1280.55	0
1280.93	0
1281.31	0
1281.69	0
1282.07	0
1282.45	0
1282.82	0
1283.2	0
1283.58	0
1283.96	0
1284.34	0
1284.72	0
1285.1	0
1285.48	0
1285.86	0
1286.24	0
1286.62	0
1287	0
1287.38	0
1287.75	0
1288.13	0
1288.51	0
1288.89	0
1289.27	0
1289.65	0
1290.03	0
1290.41	0
1290.79	0
1291.17	0
1291.54	0
1291.92	0
1292.3	0
1292.68	0
1293.06	0
1293.44	0
1293.82	0
1294.2	0
1294.57	0
1294.95	0
1295.33	0
1295.71	0
1296.09	0
1296.47	0
1296.85	0
1297.22	0
1297.6	0
1297.98	0
1298.36	0
1298.74	0
1299.12	0
1299.5	0
1299.87	0
1300.25	0
1300.63	0
1301.01	0
1301.39	0
1301.77	0
1302.14	0
1302.52	0
1302.9	0
1303.28	0
1303.66	0
1304.03	0
1304.41	0
1304.79	0
1305.17	0
1305.55	0
1305.92	0
1306.3	0
1306.68	0
1307.06	0
1307.44	0
1307.81	0
1308.19	0
1308.57	0
1308.95	0
1309.32	0
1309.7	0
1310.08	0
1310.46	0
1310.84	0
1311.21	0
1311.59	0
1311.97	0
1312.35	0
1312.72	0
1313.1	0
1313.48	0
1313.86	0
1314.23	0
1314.61	0
1314.99	0
1315.37	0
1315.74	0
1316.12	0
1316.5	0
1316.87	0
1317.25	0
1317.63	0
1318.01	0
1318.38	0
1318.76	0
1319.14	0
1319.52	0
1319.89	0
1320.27	0
1320.65	0
1321.02	0
1321.4	0
1321.78	0
1322.15	0
1322.53	0
1322.91	0
1323.29	0
1323.66	0
1324.04	0
1324.42	0
1324.79	0
1325.17	0
1325.55	0
1325.92	0
1326.3	0
1326.68	0
1327.05	0
1327.43	0
1327.81	0
1328.18	0
1328.56	0
1328.94	0
1329.31	0
1329.69	0
1330.06	0
1330.44	0
1330.82	0
1331.19	0
1331.57	0
1331.95	0
1332.32	0
1332.7	0
1333.08	0
1333.45	0
1333.83	0
1334.2	0
1334.58	0
1334.96	0
1335.33	0
1335.71	0
1336.08	0
1336.46	0
1336.84	0
1337.21	0
1337.59	0
1337.96	0
1338.34	0
1338.72	0
1339.09	0
1339.47	0
1339.84	0
1340.22	0
1340.6	0
1340.97	0
1341.35	0
1341.72	0
1342.1	0
1342.47	0
1342.85	0
1343.23	0
1343.6	0
1343.98	0
1344.35	0
1344.73	0
1345.1	0
1345.48	0
1345.85	0
1346.23	0
1346.61	0
1346.98	0
1347.36	0
1347.73	0
1348.11	0
1348.48	0
1348.86	0
1349.23	0
1349.61	0
1349.98	0
1350.36	0
1350.73	0
1351.11	0
1351.48	0
1351.86	0
1352.23	0
1352.61	0
1352.98	0
1353.36	0
1353.73	0
1354.11	0
1354.48	0
1354.86	0
1355.23	0
1355.61	0
1355.98	0
1356.36	0
1356.73	0
1357.11	0
1357.48	0
1357.86	0
1358.23	0
1358.61	0
1358.98	0
1359.35	0
1359.73	0
1360.1	0
1360.48	0
1360.85	0
1361.23	0
1361.6	0
1361.98	0
1362.35	0
1362.72	0
1363.1	0
1363.47	0
1363.85	0
1364.22	0
1364.6	0
1364.97	0
1365.34	0
1365.72	0
1366.09	0
1366.47	0
1366.84	0
1367.22	0
1367.59	0
1367.96	0
1368.34	0
1368.71	0
1369.09	0
1369.46	0
1369.83	43
1370.21	38
1370.58	44
1370.96	42
1371.33	42
1371.7	43
1372.08	44
1372.45	41
1372.82	42
1373.2	42
1373.57	42
1373.95	42
1374.32	43
1374.69	41
1375.07	43
1375.44	42
1375.81	42
1376.19	41
1376.56	43
1376.93	42
1377.31	42
1377.68	43
1378.05	45
1378.43	43
1378.8	41
1379.17	43
1379.55	42
1379.92	44
1380.29	42
1380.67	42
1381.04	42
1381.41	43
1381.79	43
1382.16	41
1382.53	43
1382.91	43
1383.28	42
1383.65	38
1384.03	42
1384.4	43
1384.77	41
1385.14	42
1385.52	44
1385.89	42
1386.26	42
1386.64	43
1387.01	43
1387.38	43
1387.75	43
1388.13	42
1388.5	42
1388.87	44
1389.25	44
1389.62	43
1389.99	42
1390.36	43
1390.74	42
1391.11	43
1391.48	41
1391.85	41
1392.23	41
1392.6	43
1392.97	44
1393.34	43
1393.72	43
1394.09	42
1394.46	44
1394.83	44
1395.21	42
1395.58	42
1395.95	44
1396.32	42
1396.69	42
1397.07	42
1397.44	43
1397.81	42
1398.18	42
1398.55	44
1398.93	44
1399.3	43
1399.67	44
1400.04	44
1400.41	44
1400.79	43
1401.16	44
1401.53	43
1401.9	43
1402.27	44
1402.65	42
1403.02	42
1403.39	44
1403.76	43
1404.13	44
1404.51	41
1404.88	43
1405.25	43
1405.62	43
1405.99	42
1406.36	44
1406.74	44
1407.11	43
1407.48	44
1407.85	42
1408.22	42
1408.59	38
1408.96	44
1409.34	42
1409.71	44
1410.08	44
1410.45	43
1410.82	44
1411.19	42
1411.56	43
1411.93	42
1412.31	43
1412.68	43
1413.05	43
1413.42	43
1413.79	42
1414.16	43
1414.53	42
1414.9	41
1415.27	42
1415.65	42
1416.02	42
1416.39	42
1416.76	43
1417.13	43
1417.5	44
1417.87	45
1418.24	43
1418.61	44
1418.98	42
1419.35	44
1419.73	41
1420.1	44
1420.47	44
1420.84	43
1421.21	43
1421.58	44
1421.95	43
1422.32	43
1422.69	43
1423.06	44
1423.43	43
1423.8	43
1424.17	44
1424.54	45
1424.91	43
1425.28	44
1425.65	43
1426.02	44
1426.39	43
1426.76	42
1427.14	44
1427.51	40
1427.88	45
1428.25	43
1428.62	44
1428.99	43
1429.36	42
1429.73	43
1430.1	42
1430.47	43
1430.84	44
1431.21	43
1431.58	44
1431.95	45
1432.32	42
1432.69	44
1433.06	42
1433.43	43
1433.8	45
1434.17	44
1434.54	42
1434.91	43
1435.28	43
1435.64	43
1436.01	44
1436.38	44
1436.75	42
1437.12	45
1437.49	44
1437.86	44
1438.23	43
1438.6	44
1438.97	44
1439.34	43
1439.71	45
1440.08	43
1440.45	43
1440.82	45
1441.19	45
1441.56	41
1441.93	46
1442.3	44
1442.67	45
1443.03	45
1443.4	35
1443.77	44
1444.14	45
1444.51	44
1444.88	45
1445.25	45
1445.62	44
1445.99	45
1446.36	45
1446.73	44
1447.09	46
1447.46	45
1447.83	44
1448.2	44
1448.57	44
1448.94	47
1449.31	43
1449.68	45
1450.05	44
1450.41	44
1450.78	43
1451.15	44
1451.52	43
1451.89	45
1452.26	45
1452.63	43
1453	43
1453.36	44
1453.73	44
1454.1	43
1454.47	43
1454.84	45
1455.21	48
1455.57	46
1455.94	45
1456.31	42
1456.68	46
1457.05	45
1457.42	46
1457.78	44
1458.15	44
1458.52	46
1458.89	44
1459.26	45
1459.63	44
1459.99	46
1460.36	45
1460.73	45
1461.1	43
1461.47	46
1461.83	44
1462.2	45
1462.57	44
1462.94	45
1463.31	46
1463.67	45
1464.04	45
1464.41	45
1464.78	44
1465.15	45
1465.51	41
1465.88	46
1466.25	45
1466.62	46
1466.98	45
1467.35	44
1467.72	46
1468.09	44
1468.46	45
1468.82	45
1469.19	46
1469.56	47
1469.93	47
1470.29	45
1470.66	45
1471.03	44
1471.4	45
1471.76	44
1472.13	46
1472.5	46
1472.86	46
1473.23	45
1473.6	46
1473.97	46
1474.33	47
1474.7	45
1475.07	45
1475.44	46
1475.8	44
1476.17	46
1476.54	45
1476.9	46
1477.27	46
1477.64	44
1478	46
1478.37	45
1478.74	45
1479.11	46
1479.47	47
1479.84	46
1480.21	46
1480.57	45
1480.94	47
1481.31	47
1481.67	47
1482.04	47
1482.41	45
1482.77	48
1483.14	48
1483.51	47
1483.87	47
1484.24	46
1484.61	46
1484.97	45
1485.34	46
1485.71	47
1486.07	47
1486.44	41
1486.81	46
1487.17	48
1487.54	47
1487.9	46
1488.27	46
1488.64	47
1489	46
1489.37	46
1489.74	47
1490.1	48
1490.47	46
1490.83	47
1491.2	46
1491.57	47
1491.93	46
1492.3	46
1492.66	46
1493.03	46
1493.4	47
1493.76	48
1494.13	48
1494.49	46
1494.86	46
1495.23	48
1495.59	46
1495.96	47
1496.32	48
1496.69	41
1497.06	47
1497.42	47
1497.79	48
1498.15	44
1498.52	48
1498.88	48
1499.25	47
1499.62	47
1499.98	48
1500.35	44
1500.71	47
1501.08	49
1501.44	47
1501.81	49
1502.17	49
1502.54	48
1502.9	49
1503.27	49
1503.64	48
1504	50
1504.37	48
1504.73	47
1505.1	48
1505.46	49
1505.83	48
1506.19	48
1506.56	47
1506.92	47
1507.29	47
1507.65	48
1508.02	49
1508.38	46
1508.75	49
1509.11	47
1509.48	49
1509.84	47
1510.21	46
1510.57	48
1510.94	49
1511.3	48
1511.67	49
1512.03	48
1512.4	48
1512.76	49
1513.13	49
1513.49	49
1513.85	44
1514.22	46
1514.58	47
1514.95	49
1515.31	50
1515.68	48
1516.04	48
1516.41	49
1516.77	49
1517.14	49
1517.5	48
1517.86	49
1518.23	49
1518.59	49
1518.96	49
1519.32	48
1519.69	49
1520.05	47
1520.41	49
1520.78	48
1521.14	48
1521.51	50
1521.87	51
1522.24	48
1522.6	49
1522.96	48
1523.33	47
1523.69	49
1524.06	49
1524.42	49
1524.78	50
1525.15	50
1525.51	50
1525.88	49
1526.24	49
1526.6	49
1526.97	48
1527.33	50
1527.69	48
1528.06	50
1528.42	49
1528.79	50
1529.15	49
1529.51	51
1529.88	46
1530.24	49
1530.6	51
1530.97	50
1531.33	49
1531.69	49
1532.06	51
1532.42	48
1532.78	50
1533.15	49
1533.51	50
1533.87	50
1534.24	49
1534.6	50
1534.96	50
1535.33	51
1535.69	51
1536.05	50
1536.42	50
1536.78	51
1537.14	50
1537.51	51
1537.87	51
1538.23	51
1538.6	52
1538.96	51
1539.32	50
1539.68	52
1540.05	52
1540.41	52
1540.77	51
1541.14	51
1541.5	52
1541.86	51
1542.23	50
1542.59	52
1542.95	50
1543.31	52
1543.68	51
1544.04	51
1544.4	53
1544.76	51
1545.13	51
1545.49	50
1545.85	53
1546.21	50
1546.58	50
1546.94	51
1547.3	51
1547.66	51
1548.03	51
1548.39	52
1548.75	52
1549.11	52
1549.48	51
1549.84	52
1550.2	52
1550.56	52
1550.93	50
1551.29	51
1551.65	52
1552.01	50
1552.37	50
1552.74	52
1553.1	50
1553.46	51
1553.82	50
1554.18	51
1554.55	49
1554.91	50
1555.27	51
1555.63	51
1555.99	50
1556.36	50
1556.72	50
1557.08	49
1557.44	42
1557.8	50
1558.17	50
1558.53	50
1558.89	51
1559.25	49
1559.61	50
1559.97	51
1560.34	51
1560.7	50
1561.06	51
1561.42	50
1561.78	51
1562.14	50
1562.5	51
1562.87	49
1563.23	52
1563.59	51
1563.95	52
1564.31	50
1564.67	51
1565.03	51
1565.4	52
1565.76	51
1566.12	53
1566.48	52
1566.84	52
1567.2	52
1567.56	52
1567.92	52
1568.29	52
1568.65	54
1569.01	53
1569.37	53
1569.73	54
1570.09	52
1570.45	55
1570.81	55
1571.17	56
1571.53	56
1571.89	55
1572.26	54
1572.62	57
1572.98	55
1573.34	56
1573.7	56
1574.06	58
1574.42	55
1574.78	56
1575.14	54
1575.5	55
1575.86	55
1576.22	55
1576.58	50
1576.94	55
1577.3	54
1577.67	55
1578.03	56
1578.39	56
1578.75	55
1579.11	56
1579.47	54
1579.83	54
1580.19	56
1580.55	57
1580.91	57
1581.27	57
1581.63	55
1581.99	55
1582.35	56
1582.71	56
1583.07	58
1583.43	56
1583.79	55
1584.15	56
1584.51	56
1584.87	56
1585.23	55
1585.59	56
1585.95	56
1586.31	56
1586.67	56
1587.03	55
1587.39	55
1587.75	54
1588.11	54
1588.47	55
1588.83	55
1589.19	56
1589.55	55
1589.91	53
1590.27	55
1590.63	53
1590.99	53
1591.35	54
1591.71	52
1592.07	54
1592.42	54
1592.78	56
1593.14	54
1593.5	53
1593.86	53
1594.22	53
1594.58	55
1594.94	54
1595.3	55
1595.66	54
1596.02	55
1596.38	55
1596.74	56
1597.1	54
1597.46	55
1597.81	56
1598.17	56
1598.53	54
1598.89	54
1599.25	55
1599.61	55
1599.97	56
1600.33	57
1600.69	56
1601.05	58
1601.4	57
1601.76	57
1602.12	55
1602.48	52
1602.84	56
1603.2	56
1603.56	55
1603.92	56
1604.28	58
1604.63	56
1604.99	58
1605.35	57
1605.71	58
1606.07	57
1606.43	59
1606.79	58
1607.14	58
1607.5	56
1607.86	59
1608.22	59
1608.58	59
1608.94	59
1609.29	59
1609.65	58
1610.01	58
1610.37	57
1610.73	60
1611.09	60
1611.44	61
1611.8	59
1612.16	60
1612.52	60
1612.88	62
1613.24	62
1613.59	62
1613.95	60
1614.31	60
1614.67	64
1615.03	62
1615.38	65
1615.74	64
1616.1	63
1616.46	63
1616.82	65
1617.17	64
1617.53	65
1617.89	65
1618.25	63
1618.6	65
1618.96	65
1619.32	67
1619.68	67
1620.04	65
1620.39	64
1620.75	66
1621.11	65
1621.47	65
1621.82	69
1622.18	66
1622.54	64
1622.9	68
1623.25	71
1623.61	70
1623.97	62
1624.33	68
1624.68	66
1625.04	70
1625.4	67
1625.75	68
1626.11	69
1626.47	64
1626.83	69
1627.18	70
1627.54	70
1627.9	68
1628.26	68
1628.61	71
1628.97	73
1629.33	71
1629.68	72
1630.04	70
1630.4	71
1630.75	69
1631.11	70
1631.47	76
1631.83	74
1632.18	70
1632.54	72
1632.9	74
1633.25	75
1633.61	70
1633.97	68
1634.32	69
1634.68	69
1635.04	70
1635.39	70
1635.75	67
1636.11	69
1636.46	70
1636.82	69
1637.18	69
1637.53	71
1637.89	68
1638.25	67
1638.6	69
1638.96	66
1639.31	68
1639.67	68
1640.03	67
1640.38	65
1640.74	66
1641.1	68
1641.45	68
1641.81	70
1642.16	65
1642.52	68
1642.88	63
1643.23	65
1643.59	66
1643.95	60
1644.3	64
1644.66	62
1645.01	66
1645.37	62
1645.73	63
1646.08	62
1646.44	61
1646.79	62
1647.15	59
1647.51	60
1647.86	60
1648.22	59
1648.57	59
1648.93	60
1649.28	55
1649.64	58
1650	59
1650.35	58
1650.71	59
1651.06	55
1651.42	57
1651.77	58
1652.13	55
1652.48	55
1652.84	54
1653.2	54
1653.55	55
1653.91	55
1654.26	55
1654.62	55
1654.97	54
1655.33	56
1655.68	54
1656.04	54
1656.39	55
1656.75	54
1657.1	53
1657.46	53
1657.81	53
1658.17	55
1658.52	54
1658.88	55
1659.23	53
1659.59	53
1659.94	53
1660.3	55
1660.65	55
1661.01	55
1661.36	57
1661.72	54
1662.07	57
1662.43	56
1662.78	58
1663.14	59
1663.49	59
1663.85	58
1664.2	60
1664.56	60
1664.91	61
1665.27	63
1665.62	55
1665.98	62
1666.33	63
1666.69	65
1667.04	65
1667.39	67
1667.75	67
1668.1	67
1668.46	68
1668.81	67
1669.17	72
1669.52	73
1669.88	72
1670.23	72
1670.58	74
1670.94	74
1671.29	78
1671.65	79
1672	80
1672.36	81
1672.71	85
1673.06	84
1673.42	89
1673.77	88
1674.13	88
1674.48	92
1674.83	90
1675.19	93
1675.54	93
1675.9	93
1676.25	98
1676.6	100
1676.96	102
1677.31	106
1677.67	107
1678.02	111
1678.37	111
1678.73	112
1679.08	113
1679.43	114
1679.79	116
1680.14	120
1680.5	120
1680.85	122
1681.2	120
1681.56	126
1681.91	127
1682.26	128
1682.62	128
1682.97	132
1683.32	132
1683.68	134
1684.03	134
1684.38	136
1684.74	138
1685.09	142
1685.44	145
1685.8	145
1686.15	145
1686.5	148
1686.86	149
1687.21	153
1687.56	152
1687.92	149
1688.27	154
1688.62	157
1688.98	158
1689.33	157
1689.68	158
1690.03	160
1690.39	165
1690.74	162
1691.09	163
1691.45	164
1691.8	167
1692.15	165
1692.5	170
1692.86	171
1693.21	172
1693.56	170
1693.92	175
1694.27	173
1694.62	176
1694.97	176
1695.33	178
1695.68	177
1696.03	177
1696.38	180
1696.74	182
1697.09	185
1697.44	178
1697.79	179
1698.15	184
1698.5	187
1698.85	183
1699.2	186
1699.56	184
1699.91	180
1700.26	196
1700.61	195
1700.97	192
1701.32	197
1701.67	197
1702.02	199
1702.37	201
1702.73	201
1703.08	203
1703.43	206
1703.78	203
1704.13	203
1704.49	210
1704.84	207
1705.19	206
1705.54	210
1705.89	211
1706.25	212
1706.6	218
1706.95	216
1707.3	213
1707.65	212
1708.01	219
1708.36	225
1708.71	226
1709.06	219
1709.41	222
1709.76	227
1710.12	229
1710.47	236
1710.82	234
1711.17	235
1711.52	238
1711.87	239
1712.23	240
1712.58	239
1712.93	242
1713.28	241
1713.63	236
1713.98	242
1714.33	243
1714.69	240
1715.04	248
1715.39	245
1715.74	250
1716.09	244
1716.44	250
1716.79	253
1717.14	255
1717.5	259
1717.85	257
1718.2	260
1718.55	268
1718.9	264
1719.25	273
1719.6	271
1719.95	280
1720.3	281
1720.65	286
1721.01	298
1721.36	294
1721.71	306
1722.06	315
1722.41	315
1722.76	328
1723.11	328
1723.46	352
1723.81	341
1724.16	344
1724.51	366
1724.86	361
1725.21	391
1725.56	389
1725.92	398
1726.27	403
1726.62	409
1726.97	440
1727.32	444
1727.67	460
1728.02	459
1728.37	475
1728.72	487
1729.07	485
1729.42	518
1729.77	498
1730.12	521
1730.47	524
1730.82	540
1731.17	573
1731.52	562
1731.87	596
1732.22	599
1732.57	596
1732.92	630
1733.27	615
1733.62	653
1733.97	652
1734.32	667
1734.67	681
1735.02	669
1735.37	722
1735.72	685
1736.07	719
1736.42	736
1736.77	716
1737.12	772
1737.47	730
1737.82	771
1738.17	761
1738.52	762
1738.87	825
1739.22	785
1739.57	808
1739.92	830
1740.27	801
1740.62	860
1740.97	813
1741.32	825
1741.67	860
1742.02	815
1742.37	855
1742.72	862
1743.06	849
1743.41	907
1743.76	881
1744.11	937
1744.46	962
1744.81	895
1745.16	955
1745.51	948
1745.86	902
1746.21	961
1746.56	921
1746.91	922
1747.26	964
1747.6	911
1747.95	930
1748.3	1024
1748.65	883
1749	919
1749.35	990
1749.7	869
1750.05	961
1750.4	943
1750.75	882
1751.09	1030
1751.44	940
1751.79	860
1752.14	968
1752.49	964
1752.84	864
1753.19	912
1753.54	989
1753.88	870
1754.23	976
1754.58	926
1754.93	876
1755.28	1040
1755.63	899
1755.98	866
1756.32	1010
1756.67	849
1757.02	850
1757.37	872
1757.72	762
1758.07	875
1758.42	804
1758.76	722
1759.11	863
1759.46	774
1759.81	716
1760.16	840
1760.5	740
1760.85	744
1761.2	716
1761.55	676
1761.9	791
1762.25	731
1762.59	635
1762.94	751
1763.29	710
1763.64	661
1763.99	722
1764.33	647
1764.68	662
1765.03	643
1765.38	549
1765.73	628
1766.07	663
1766.42	583
1766.77	614
1767.12	656
1767.46	636
1767.81	620
1768.16	555
1768.51	603
1768.85	634
1769.2	506
1769.55	525
1769.9	661
1770.25	631
1770.59	597
1770.94	637
1771.29	743
1771.64	768
1771.98	568
1772.33	572
1772.68	725
1773.02	637
1773.37	527
1773.72	578
1774.07	702
1774.41	708
1774.76	618
1775.11	713
1775.46	892
1775.8	798
1776.15	652
1776.5	699
1776.84	789
1777.19	685
1777.54	604
1777.89	745
1778.23	893
1778.58	820
1778.93	821
1779.27	1025
1779.62	1020
1779.97	883
1780.31	842
1780.66	985
1781.01	1029
1781.35	790
1781.7	900
1782.05	1135
1782.39	968
1782.74	1057
1783.09	1099
1783.43	1214
1783.78	1325
1784.13	1147
1784.47	1228
1784.82	1501
1785.17	1119
1785.51	1170
1785.86	1236
1786.21	1189
1786.55	1810
1786.9	1801
1787.25	1551
1787.59	1907
1787.94	1675
1788.29	1651
1788.63	1937
1788.98	1503
1789.32	1689
1789.67	1900
1790.02	1684
1790.36	2153
1790.71	1568
1791.06	1859
1791.4	3774
1791.75	2927
1792.09	2431
1792.44	3263
1792.79	2884
1793.13	3729
1793.48	3124
1793.82	2869
1794.17	3567
1794.52	2999
1794.86	2741
1795.21	3370
1795.55	2697
1795.9	2798
1796.24	2316
1796.59	2657
1796.94	5880
1797.28	5296
1797.63	4719
1797.97	4621
1798.32	3446
1798.66	4373
1799.01	4204
1799.36	5402
1799.7	4692
1800.05	3409
1800.39	5514
1800.74	4868
1801.08	3398
1801.43	8103
1801.77	7536
1802.12	5785
1802.46	4920
1802.81	4885
1803.15	6234
1803.5	5117
1803.85	4352
1804.19	5211
1804.54	3556
1804.88	4777
1805.23	7506
1805.57	4705
1805.92	4784
1806.26	8673
1806.61	7655
1806.95	6406
1807.3	4989
1807.64	8113
1807.99	11299
1808.33	7499
1808.68	6768
1809.02	5734
1809.37	4640
1809.71	11300
1810.06	10427
1810.4	7945
1810.75	7636
1811.09	5760
1811.43	6031
1811.78	12363
1812.12	12967
1812.47	11186
1812.81	11287
1813.16	9484
1813.5	8718
1813.85	10218
1814.19	8493
1814.54	7875
1814.88	8738
1815.23	7022
1815.57	6557
1815.91	6416
1816.26	4771
1816.6	4102
1816.95	10124
1817.29	12864
1817.64	8329
1817.98	9970
1818.32	10616
1818.67	12430
1819.01	13097
1819.36	11787
1819.7	9914
1820.05	10456
1820.39	9030
1820.73	9254
1821.08	11322
1821.42	10472
1821.77	9104
1822.11	9142
1822.45	9930
1822.8	7141
1823.14	6799
1823.49	9681
1823.83	8533
1824.17	5783
1824.52	12883
1824.86	15304
1825.2	11771
1825.55	12271
1825.89	10377
1826.24	9154
1826.58	8678
1826.92	7281
1827.27	11003
1827.61	14460
1827.95	11084
1828.3	10061
1828.64	11651
1828.98	9134
1829.33	8076
1829.67	8029
1830.02	5939
1830.36	10162
1830.7	14969
1831.05	11267
1831.39	11567
1831.73	13685
1832.08	11328
1832.42	9859
1832.76	11202
1833.1	9126
1833.45	8696
1833.79	9435
1834.13	8710
1834.48	7498
1834.82	8171
1835.16	9392
1835.51	8608
1835.85	9772
1836.19	8017
1836.54	7458
1836.88	8308
1837.22	6700
1837.56	5813
1837.91	5254
1838.25	5169
1838.59	7332
1838.94	9614
1839.28	10961
1839.62	8360
1839.96	7810
1840.31	6607
1840.65	7784
1840.99	6884
1841.34	5859
1841.68	4741
1842.02	10506
1842.36	13255
1842.71	10436
1843.05	8986
1843.39	8536
1843.73	5216
1844.08	6287
1844.42	12793
1844.76	11849
1845.1	10303
1845.45	11834
1845.79	9838
1846.13	7287
1846.47	7516
1846.81	9392
1847.16	8228
1847.5	7832
1847.84	6348
1848.18	6343
1848.53	11084
1848.87	10904
1849.21	7953
1849.55	8416
1849.89	7779
1850.24	6712
1850.58	7610
1850.92	6725
1851.26	6100
1851.6	6282
1851.95	6256
1852.29	6191
1852.63	6214
1852.97	6195
1853.31	5280
1853.66	5808
1854	4832
1854.34	4404
1854.68	4515
1855.02	3946
1855.36	6826
1855.71	6621
1856.05	5793
1856.39	4808
1856.73	4840
1857.07	4776
1857.41	4064
1857.76	4488
1858.1	4335
1858.44	4098
1858.78	4394
1859.12	3626
1859.46	3647
1859.8	3490
1860.15	3318
1860.49	2978
1860.83	2911
1861.17	3918
1861.51	5224
1861.85	4506
1862.19	3179
1862.53	3003
1862.88	2854
1863.22	3271
1863.56	3490
1863.9	3079
1864.24	2711
1864.58	3060
1864.92	3342
1865.26	2598
1865.6	2663
1865.94	2421
1866.29	2145
1866.63	2161
1866.97	1928
1867.31	1970
1867.65	1972
1867.99	1797
1868.33	2549
1868.67	2286
1869.01	1795
1869.35	2018
1869.69	2233
1870.03	3985
1870.37	3145
1870.72	2511
1871.06	2709
1871.4	2197
1871.74	1802
1872.08	1750
1872.42	1861
1872.76	2097
1873.1	3768
1873.44	2558
1873.78	1630
1874.12	1610
1874.46	1606
1874.8	1690
1875.14	3064
1875.48	3444
1875.82	2003
1876.16	1830
1876.5	2317
1876.84	2337
1877.18	1925
1877.52	1514
1877.86	1408
1878.2	1569
1878.54	1550
1878.88	1512
1879.22	1531
1879.56	1675
1879.9	1561
1880.24	1943
1880.58	1754
1880.92	1654
1881.26	2116
1881.6	1947
1881.94	1551
1882.28	1603
1882.62	1883
1882.96	1959
1883.3	2626
1883.64	2479
1883.98	1601
1884.32	1447
1884.66	1710
1885	1571
1885.34	1616
1885.68	1936
1886.02	1982
1886.36	1716
1886.7	1678
1887.04	1763
1887.38	1591
1887.72	1785
1888.06	1813
1888.39	1914
1888.73	1916
1889.07	2300
1889.41	2322
1889.75	2930
1890.09	2438
1890.43	2247
1890.77	2679
1891.11	2184
1891.45	1525
1891.79	1507
1892.13	1527
1892.47	1769
1892.8	1798
1893.14	1868
1893.48	1917
1893.82	2177
1894.16	2199
1894.5	2363
1894.84	1946
1895.18	1871
1895.52	1907
1895.86	2103
1896.19	2059
1896.53	2088
1896.87	2155
1897.21	2306
1897.55	2237
1897.89	2138
1898.23	2321
1898.57	2388
1898.9	2796
1899.24	2414
1899.58	2170
1899.92	2212
1900.26	2518
1900.6	2440
1900.94	2431
1901.27	2374
1901.61	2580
1901.95	2370
1902.29	2574
1902.63	2407
1902.97	2556
1903.3	2418
1903.64	2620
1903.98	2471
1904.32	2702
1904.66	2599
1905	2514
1905.33	2394
1905.67	2694
1906.01	2628
1906.35	2783
1906.69	2675
1907.02	2955
1907.36	2806
1907.7	2628
1908.04	2510
1908.38	2871
1908.71	2725
1909.05	2887
1909.39	2684
1909.73	2906
1910.07	2730
1910.4	2718
1910.74	2627
1911.08	2693
1911.42	2616
1911.76	2833
1912.09	2696
1912.43	2865
1912.77	2738
1913.11	2771
1913.44	2767
1913.78	2822
1914.12	2758
1914.46	2809
1914.79	2768
1915.13	2684
1915.47	2687
1915.81	2719
1916.14	2603
1916.48	2494
1916.82	2712
1917.16	2599
1917.49	2663
1917.83	2615
1918.17	2717
1918.5	2626
1918.84	2696
1919.18	2659
1919.52	2564
1919.85	2566
1920.19	2616
1920.53	2622
1920.87	2549
1921.2	2549
1921.54	2484
1921.88	2532
1922.21	2456
1922.55	2537
1922.89	2381
1923.22	2441
1923.56	2368
1923.9	2388
1924.23	2339
1924.57	2332
1924.91	2299
1925.25	2275
1925.58	2309
1925.92	2273
1926.26	2305
1926.59	2304
1926.93	2233
1927.27	2166
1927.6	2258
1927.94	2284
1928.28	2270
1928.61	2215
1928.95	2246
1929.29	2136
1929.62	2192
1929.96	2166
1930.29	2219
1930.63	2073
1930.97	2163
1931.3	2111
1931.64	2183
1931.98	2099
1932.31	2088
1932.65	2041
1932.99	1959
1933.32	2032
1933.66	1948
1933.99	2021
1934.33	1913
1934.67	1845
1935	1913
1935.34	1828
1935.67	1903
1936.01	1848
1936.35	1895
1936.68	1780
1937.02	1847
1937.35	1889
1937.69	1850
1938.03	1872
1938.36	1821
1938.7	1812
1939.03	1789
1939.37	1871
1939.7	1756
1940.04	1756
1940.38	1734
1940.71	1714
1941.05	1678
1941.38	1738
1941.72	1699
1942.05	1658
1942.39	1719
1942.73	1678
1943.06	1681
1943.4	1663
1943.73	1664
1944.07	1601
1944.4	1627
1944.74	1611
1945.07	1557
1945.41	1626
1945.74	1573
1946.08	1542
1946.42	1501
1946.75	1574
1947.09	1513
1947.42	1522
1947.76	1482
1948.09	1539
1948.43	1436
1948.76	1493
1949.1	1491
1949.43	1478
1949.77	1381
1950.1	1458
1950.44	1426
1950.77	1427
1951.11	1413
1951.44	1442
1951.78	1392
1952.11	1387
1952.45	1382
1952.78	1386
1953.12	1327
1953.45	1353
1953.79	1348
1954.12	1335
1954.46	1311
1954.79	1331
1955.12	1333
1955.46	1277
1955.79	1301
1956.13	1288
1956.46	1292
1956.8	1221
1957.13	1280
1957.47	1224
1957.8	1234
1958.14	1172
1958.47	1244
1958.8	1191
1959.14	1179
1959.47	1168
1959.81	1204
1960.14	1165
1960.48	1140
1960.81	1175
1961.14	1152
1961.48	1121
1961.81	1118
1962.15	1163
1962.48	1085
1962.82	1082
1963.15	1108
1963.48	1124
1963.82	1041
1964.15	1062
1964.49	1062
1964.82	1068
1965.15	996
1965.49	1049
1965.82	1017
1966.16	1011
1966.49	957
1966.82	1026
1967.16	995
1967.49	967
1967.83	947
1968.16	961
1968.49	969
1968.83	899
1969.16	926
1969.49	904
1969.83	903
1970.16	841
1970.49	902
1970.83	849
1971.16	852
1971.5	818
1971.83	860
1972.16	823
1972.5	805
1972.83	825
1973.16	827
1973.5	788
1973.83	738
1974.16	790
1974.5	760
1974.83	740
1975.16	706
1975.5	768
1975.83	726
1976.16	691
1976.49	675
1976.83	694
1977.16	650
1977.49	598
1977.83	635
1978.16	629
1978.49	612
1978.83	569
1979.16	611
1979.49	536
1979.83	549
1980.16	543
1980.49	564
1980.82	509
1981.16	505
1981.49	505
1981.82	497
1982.15	455
1982.49	461
1982.82	442
1983.15	410
1983.49	391
1983.82	411
1984.15	402
1984.48	371
1984.82	353
1985.15	364
1985.48	344
1985.81	348
1986.15	341
1986.48	328
1986.81	287
1987.14	323
1987.48	300
1987.81	283
1988.14	266
1988.47	277
1988.81	247
1989.14	235
1989.47	248
1989.8	254
1990.13	223
1990.47	223
1990.8	243
1991.13	214
1991.46	210
1991.79	223
1992.13	212
1992.46	180
1992.79	184
1993.12	184
1993.45	176
1993.79	158
1994.12	160
1994.45	150
1994.78	141
1995.11	139
1995.45	152
1995.78	137
1996.11	132
1996.44	129
1996.77	136
1997.1	123
1997.44	128
1997.77	123
1998.1	122
1998.43	117
1998.76	127
1999.09	118
1999.43	116
1999.76	123
2000.09	119
2000.42	120
2000.75	127
2001.08	126
2001.41	116
2001.75	139
2002.08	137
2002.41	132
2002.74	134
2003.07	152
2003.4	136
2003.73	145
2004.06	155
2004.4	159
2004.73	149
2005.06	172
2005.39	167
2005.72	170
2006.05	184
2006.38	204
2006.71	195
2007.04	210
2007.37	226
2007.71	220
2008.04	210
2008.37	212
2008.7	211
2009.03	206
2009.36	221
2009.69	240
2010.02	236
2010.35	249
2010.68	270
2011.01	265
2011.34	279
2011.67	294
2012.01	284
2012.34	280
2012.67	295
2013	311
2013.33	296
2013.66	302
2013.99	319
2014.32	337
2014.65	309
2014.98	341
2015.31	350
2015.64	346
2015.97	323
2016.3	355
2016.63	352
2016.96	353
2017.29	339
2017.62	363
2017.95	355
2018.28	345
2018.61	358
2018.94	364
2019.27	364
2019.6	346
2019.93	371
2020.26	356
2020.59	363
2020.92	349
2021.25	375
2021.58	365
2021.91	353
2022.24	357
2022.57	369
2022.9	371
2023.23	342
2023.56	360
2023.89	367
2024.22	364
2024.55	338
2024.88	361
2025.21	357
2025.54	342
2025.87	337
2026.2	353
2026.53	349
2026.86	326
2027.19	335
2027.52	343
2027.85	339
2028.18	313
2028.51	330
2028.84	331
2029.16	323
2029.49	311
2029.82	311
2030.15	327
2030.48	309
2030.81	308
2031.14	296
2031.47	306
2031.8	301
2032.13	287
2032.46	294
2032.79	282
2033.12	288
2033.44	274
2033.77	271
2034.1	280
2034.43	260
2034.76	261
2035.09	264
2035.42	260
2035.75	261
2036.08	242
2036.41	246
2036.73	250
2037.06	249
2037.39	233
2037.72	224
2038.05	234
2038.38	228
2038.71	222
2039.04	210
2039.36	213
2039.69	216
2040.02	211
2040.35	209
2040.68	204
2041.01	205
2041.34	202
2041.66	194
2041.99	194
2042.32	188
2042.65	185
2042.98	175
2043.31	180
2043.63	177
2043.96	170
2044.29	170
2044.62	164
2044.95	169
2045.28	160
2045.6	158
2045.93	169
2046.26	161
2046.59	157
2046.92	153
2047.24	159
2047.57	157
2047.9	154
2048.23	147
2048.56	155
2048.88	147
2049.21	145
2049.54	145
2049.87	144
2050.2	138
2050.52	134
2050.85	137
2051.18	133
2051.51	131
2051.83	130
2052.16	130
2052.49	127
2052.82	130
2053.15	129
2053.47	132
2053.8	123
2054.13	125
2054.46	124
2054.78	120
2055.11	120
2055.44	120
2055.77	120
2056.09	118
2056.42	123
2056.75	122
2057.08	124
2057.4	120
2057.73	119
2058.06	121
2058.38	122
2058.71	119
2059.04	117
2059.37	120
2059.69	116
2060.02	115
2060.35	113
2060.67	118
2061	118
2061.33	117
2061.66	117
2061.98	115
2062.31	115
2062.64	115
2062.96	116
2063.29	113
2063.62	116
2063.94	115
2064.27	118
2064.6	115
2064.92	115
2065.25	113
2065.58	116
2065.91	114
2066.23	118
2066.56	116
2066.89	115
2067.21	114
2067.54	117
2067.87	115
2068.19	113
2068.52	115
2068.84	118
2069.17	115
2069.5	112
2069.82	114
2070.15	115
2070.48	111
2070.8	111
2071.13	113
2071.46	113
2071.78	113
2072.11	112
2072.43	112
2072.76	111
2073.09	111
2073.41	111
2073.74	109
2074.07	109
2074.39	110
2074.72	108
2075.04	109
2075.37	108
2075.7	110
2076.02	109
2076.35	107
2076.67	107
2077	110
2077.33	106
2077.65	106
2077.98	108
2078.3	108
2078.63	107
2078.95	106
2079.28	106
2079.61	108
2079.93	107
2080.26	103
2080.58	106
2080.91	107
2081.23	106
2081.56	105
2081.89	107
2082.21	107
2082.54	107
2082.86	104
2083.19	106
2083.51	106
2083.84	106
2084.16	104
2084.49	107
2084.81	106
2085.14	107
2085.46	107
2085.79	107
2086.12	108
2086.44	108
2086.77	106
2087.09	106
2087.42	106
2087.74	105
2088.07	104
2088.39	104
2088.72	105
2089.04	105
2089.37	105
2089.69	103
2090.02	104
2090.34	105
2090.67	106
2090.99	103
2091.32	104
2091.64	93
2091.97	101
2092.29	103
2092.62	103
2092.94	99
2093.26	100
2093.59	99
2093.91	102
2094.24	104
2094.56	95
2094.89	101
2095.21	101
2095.54	102
2095.86	101
2096.19	99
2096.51	99
2096.84	97
2097.16	98
2097.48	98
2097.81	96
2098.13	96
2098.46	95
2098.78	96
2099.11	95
2099.43	97
2099.75	95
2100.08	93
2100.4	93
2100.73	90
2101.05	92
2101.38	90
2101.7	90
2102.02	87
2102.35	89
2102.67	90
2103	87
2103.32	90
2103.64	87
2103.97	85
2104.29	84
2104.62	84
2104.94	85
2105.26	85
2105.59	85
2105.91	82
2106.23	84
2106.56	84
2106.88	84
2107.21	83
2107.53	80
2107.85	81
2108.18	81
2108.5	80
2108.82	80
2109.15	78
2109.47	80
2109.79	81
2110.12	79
2110.44	79
2110.76	79
2111.09	77
2111.41	79
2111.73	76
2112.06	78
2112.38	77
2112.7	78
2113.03	77
2113.35	76
2113.67	77
2114	79
2114.32	80
2114.64	78
2114.97	79
2115.29	78
2115.61	80
2115.94	78
2116.26	77
2116.58	81
2116.91	82
2117.23	82
2117.55	77
2117.87	83
2118.2	85
2118.52	85
2118.84	86
2119.17	86
2119.49	88
2119.81	87
2120.13	87
2120.46	89
2120.78	89
2121.1	90
2121.42	84
2121.75	90
2122.07	88
2122.39	89
2122.72	87
2123.04	88
2123.36	89
2123.68	87
2124.01	86
2124.33	88
2124.65	87
2124.97	87
2125.29	86
2125.62	87
2125.94	86
2126.26	87
2126.58	86
2126.91	85
2127.23	87
2127.55	81
2127.87	85
2128.2	85
2128.52	85
2128.84	84
2129.16	84
2129.48	83
2129.81	83
2130.13	83
2130.45	83
2130.77	83
2131.09	82
2131.42	80
2131.74	79
2132.06	79
2132.38	81
2132.7	80
2133.02	79
2133.35	77
2133.67	77
2133.99	78
2134.31	78
2134.63	74
2134.96	73
2135.28	75
2135.6	75
2135.92	74
2136.24	75
2136.56	73
2136.88	74
2137.21	73
2137.53	71
2137.85	72
2138.17	73
2138.49	73
2138.81	66
2139.13	71
2139.46	70
2139.78	70
2140.1	69
2140.42	69
2140.74	70
2141.06	69
2141.38	70
2141.7	68
2142.03	68
2142.35	69
2142.67	68
2142.99	67
2143.31	68
2143.63	69
2143.95	69
2144.27	69
2144.59	69
2144.91	68
2145.24	68
2145.56	68
2145.88	67
2146.2	69
2146.52	69
2146.84	69
2147.16	69
2147.48	68
2147.8	69
2148.12	70
2148.44	70
2148.76	69
2149.08	70
2149.41	70
2149.73	69
2150.05	69
2150.37	69
2150.69	70
2151.01	69
2151.33	70
2151.65	68
2151.97	71
2152.29	71
2152.61	69
2152.93	70
2153.25	68
2153.57	68
2153.89	70
2154.21	70
2154.53	69
2154.85	67
2155.17	69
2155.49	69
2155.81	70
2156.13	67
2156.45	68
2156.77	68
2157.09	67
2157.41	67
2157.73	67
2158.05	67
2158.37	69
2158.69	68
2159.01	69
2159.33	67
2159.65	67
2159.97	67
2160.29	69
2160.61	67
2160.93	65
2161.25	65
2161.57	66
2161.89	65
2162.21	65
2162.53	64
2162.85	65
2163.17	65
2163.49	62
2163.81	69
2164.13	64
2164.45	65
2164.77	66
2165.08	63
2165.4	64
2165.72	63
2166.04	64
2166.36	63
2166.68	64
2167	64
2167.32	64
2167.64	64
2167.96	63
2168.28	62
2168.6	62
2168.92	63
2169.24	63
2169.55	61
2169.87	62
2170.19	64
2170.51	63
2170.83	62
2171.15	61
2171.47	63
2171.79	62
2172.11	63
2172.43	62
2172.74	62
2173.06	61
2173.38	61
2173.7	62
2174.02	62
2174.34	62
2174.66	61
2174.98	61
2175.29	61
2175.61	62
2175.93	59
2176.25	60
2176.57	61
2176.89	61
2177.21	61
2177.52	61
2177.84	61
2178.16	62
2178.48	60
2178.8	61
2179.12	60
2179.43	59
2179.75	61
2180.07	61
2180.39	55
2180.71	61
2181.03	59
2181.34	60
2181.66	61
2181.98	59
2182.3	59
2182.62	58
2182.93	60
2183.25	60
2183.57	56
2183.89	58
2184.21	59
2184.52	60
2184.84	58
2185.16	58
2185.48	59
2185.8	58
2186.11	57
2186.43	58
2186.75	58
2187.07	57
2187.39	58
2187.7	55
2188.02	54
2188.34	57
2188.66	54
2188.97	58
2189.29	59
2189.61	57
2189.93	57
2190.24	58
2190.56	57
2190.88	57
2191.2	58
2191.51	57
2191.83	57
2192.15	55
2192.47	56
2192.78	57
2193.1	56
2193.42	57
2193.74	57
2194.05	56
2194.37	55
2194.69	56
2195	57
2195.32	58
2195.64	55
2195.96	56
2196.27	57
2196.59	57
2196.91	57
2197.22	53
2197.54	56
2197.86	56
2198.18	57
2198.49	56
2198.81	55
2199.13	58
2199.44	58
2199.76	56
2200.08	56
2200.39	56
2200.71	56
2201.03	55
2201.34	54
2201.66	56
2201.98	55
2202.29	55
2202.61	55
2202.93	56
2203.24	56
2203.56	55
2203.88	55
2204.19	55
2204.51	56
2204.83	53
2205.14	55
2205.46	54
2205.78	56
2206.09	54
2206.41	54
2206.72	53
2207.04	54
2207.36	53
2207.67	54
2207.99	52
2208.31	55
2208.62	53
2208.94	55
2209.25	54
2209.57	55
2209.89	54
2210.2	52
2210.52	54
2210.83	53
2211.15	55
2211.47	54
2211.78	53
2212.1	53
2212.41	54
2212.73	52
2213.05	53
2213.36	53
2213.68	54
2213.99	53
2214.31	53
2214.62	53
2214.94	54
2215.26	53
2215.57	53
2215.89	55
2216.2	54
2216.52	54
2216.83	54
2217.15	53
2217.46	53
2217.78	52
2218.1	51
2218.41	52
2218.73	51
2219.04	52
2219.36	53
2219.67	52
2219.99	53
2220.3	52
2220.62	53
2220.93	53
2221.25	52
2221.56	53
2221.88	52
2222.19	52
2222.51	53
2222.82	52
2223.14	52
2223.45	45
2223.77	53
2224.08	52
2224.4	51
2224.71	51
2225.03	51
2225.34	51
2225.66	53
2225.97	53
2226.29	45
2226.6	50
2226.92	51
2227.23	51
2227.55	52
2227.86	51
2228.18	52
2228.49	51
2228.81	52
2229.12	52
2229.44	51
2229.75	52
2230.07	51
2230.38	51
2230.69	51
2231.01	52
2231.32	51
2231.64	52
2231.95	52
2232.27	51
2232.58	51
2232.9	52
2233.21	52
2233.52	51
2233.84	51
2234.15	51
2234.47	50
2234.78	51
2235.1	52
2235.41	49
2235.72	51
2236.04	51
2236.35	50
2236.67	51
2236.98	51
2237.29	48
2237.61	50
2237.92	51
2238.24	50
2238.55	49
2238.86	51
2239.18	49
2239.49	51
2239.8	50
2240.12	46
2240.43	50
2240.75	49
2241.06	49
2241.37	50
2241.69	48
2242	50
2242.31	49
2242.63	49
2242.94	50
2243.26	49
2243.57	50
2243.88	45
2244.2	50
2244.51	50
2244.82	49
2245.14	50
2245.45	50
2245.76	50
2246.08	49
2246.39	50
2246.7	51
2247.02	48
2247.33	49
2247.64	49
2247.96	49
2248.27	49
2248.58	49
2248.9	49
2249.21	44
2249.52	49
2249.83	50
2250.15	48
2250.46	50
2250.77	50
2251.09	48
2251.4	48
2251.71	48
2252.03	49
2252.34	49
2252.65	49
2252.96	50
2253.28	50
2253.59	49
2253.9	48
2254.21	48
2254.53	50
2254.84	50
2255.15	49
2255.47	49
2255.78	48
2256.09	48
2256.4	49
2256.72	51
2257.03	49
2257.34	48
2257.65	49
2257.97	49
2258.28	48
2258.59	50
2258.9	49
2259.22	48
2259.53	48
2259.84	48
2260.15	47
2260.46	47
2260.78	47
2261.09	47
2261.4	47
2261.71	47
2262.03	49
2262.34	47
2262.65	47
2262.96	47
2263.27	48
2263.59	48
2263.9	48
2264.21	46
2264.52	48
2264.83	46
2265.15	48
2265.46	47
2265.77	47
2266.08	49
2266.39	48
2266.7	47
2267.02	47
2267.33	47
2267.64	48
2267.95	44
2268.26	47
2268.57	49
2268.89	47
2269.2	49
2269.51	47
2269.82	46
2270.13	48
2270.44	48
2270.76	47
2271.07	47
2271.38	45
2271.69	47
2272	45
2272.31	47
2272.62	48
2272.93	46
2273.25	42
2273.56	47
2273.87	48
2274.18	48
2274.49	47
2274.8	47
2275.11	48
2275.42	45
2275.74	47
2276.05	47
2276.36	46
2276.67	48
2276.98	47
2277.29	47
2277.6	47
2277.91	45
2278.22	46
2278.53	48
2278.85	44
2279.16	47
2279.47	47
2279.78	42
2280.09	47
2280.4	47
2280.71	46
2281.02	46
2281.33	47
2281.64	46
2281.95	47
2282.26	46
2282.57	48
2282.88	45
2283.19	46
2283.5	46
2283.82	45
2284.13	46
2284.44	46
2284.75	47
2285.06	45
2285.37	42
2285.68	47
2285.99	46
2286.3	45
2286.61	45
2286.92	48
2287.23	47
2287.54	44
2287.85	46
2288.16	45
2288.47	47
2288.78	46
2289.09	45
2289.4	45
2289.71	46
2290.02	47
2290.33	46
2290.64	45
2290.95	45
2291.26	45
2291.57	45
2291.88	46
2292.19	45
2292.5	43
2292.81	46
2293.12	0
2293.43	0
2293.74	0
2294.05	0
2294.36	0
2294.67	0
2294.98	0
2295.29	0
2295.6	0
2295.91	0
2296.21	0
2296.52	0
2296.83	0
2297.14	0
2297.45	0
2297.76	0
2298.07	0
2298.38	0
2298.69	0
2299	0
2299.31	0
2299.62	0
2299.93	0
2300.24	0
2300.55	0
2300.85	0
2301.16	0
2301.47	0
2301.78	0
2302.09	0
2302.4	0
2302.71	0
2303.02	0
2303.33	0
2303.64	0
2303.94	0
2304.25	0
2304.56	0
2304.87	0
2305.18	0
2305.49	0
2305.8	0
2306.11	0
2306.42	0
2306.72	0
2307.03	0
2307.34	0
2307.65	0
2307.96	0
2308.27	0
2308.58	0
2308.88	0
2309.19	0
2309.5	0
2309.81	0
2310.12	0
2310.43	0
2310.74	0
2311.04	0
2311.35	0
2311.66	0
2311.97	0
2312.28	0
2312.59	0
2312.89	0
2313.2	0
2313.51	0
2313.82	0
2314.13	0
2314.43	0
2314.74	0
2315.05	0
2315.36	0
2315.67	0
2315.97	0
2316.28	0
2316.59	0
2316.9	0
2317.21	0
2317.51	0
2317.82	0
2318.13	0
2318.44	0
2318.75	0
2319.05	0
2319.36	0
2319.67	0
2319.98	0
2320.28	0
2320.59	0
2320.9	0
2321.21	0
2321.51	0
2321.82	0
2322.13	0
2322.44	0
2322.74	0
2323.05	0
2323.36	0
2323.67	0
2323.97	0
2324.28	0
2324.59	0
2324.9	0
2325.2	0
2325.51	0
2325.82	0
2326.13	0
2326.43	0
2326.74	0
2327.05	0
2327.35	0
2327.66	0
2327.97	0
2328.27	0
2328.58	0
2328.89	0
2329.2	0
2329.5	0
2329.81	0
2330.12	0
2330.42	0
2330.73	0
2331.04	0
2331.34	0
2331.65	0
2331.96	0
2332.26	0
2332.57	0
2332.88	0
2333.18	0
2333.49	0
2333.8	0
2334.1	0
2334.41	0
2334.72	0
2335.02	0
2335.33	0
2335.64	0
2335.94	0
2336.25	0
2336.56	0
2336.86	0
2337.17	0
2337.48	0
2337.78	0
2338.09	0
2338.39	0
2338.7	0
2339.01	0
2339.31	0
2339.62	0
2339.93	0
2340.23	0
2340.54	0
2340.84	0
2341.15	0
2341.46	0
2341.76	0
2342.07	0
2342.37	0
2342.68	0
2342.99	0
2343.29	0
2343.6	0
2343.9	0
2344.21	0
2344.51	0
2344.82	0
2345.13	0
2345.43	0
2345.74	0
2346.04	0
2346.35	0
2346.65	0
2346.96	0
2347.27	0
2347.57	0
2347.88	0
2348.18	0
2348.49	0
2348.79	0
2349.1	0
2349.4	0
2349.71	0
2350.01	0
2350.32	0
2350.63	0
2350.93	0
2351.24	0
2351.54	0
2351.85	0
2352.15	0
2352.46	0
2352.76	0
2353.07	0
2353.37	0
2353.68	0
2353.98	0
2354.29	0
2354.59	0
2354.9	0
2355.2	0
2355.51	0
2355.81	0
2356.12	0
2356.42	0
2356.73	0
2357.03	0
2357.34	0
2357.64	0
2357.95	0
2358.25	0
2358.55	0
2358.86	0
2359.16	0
2359.47	0
2359.77	0
2360.08	0
2360.38	0
2360.69	0
2360.99	0
2361.3	0
2361.6	0
2361.9	0
2362.21	0
2362.51	0
2362.82	0
2363.12	0
2363.43	0
2363.73	0
2364.04	0
2364.34	0
2364.64	0
2364.95	0
2365.25	0
2365.56	0
2365.86	0
2366.16	0
2366.47	0
2366.77	0
2367.08	0
2367.38	0
2367.68	0
2367.99	0
2368.29	0
2368.6	0
2368.9	0
2369.2	0
2369.51	0
2369.81	0
2370.12	0
2370.42	0
2370.72	0
2371.03	0
2371.33	0
2371.63	0
2371.94	0
2372.24	0
2372.55	0
2372.85	0
2373.15	0
2373.46	0
2373.76	0
2374.06	0
2374.37	0
2374.67	0
2374.97	0
2375.28	0
2375.58	0
2375.88	0
2376.19	0
2376.49	0
2376.79	0
2377.1	0
2377.4	0
2377.7	0
2378.01	0
2378.31	0
2378.61	0
2378.92	0
2379.22	0
2379.52	0
2379.82	0
2380.13	0
2380.43	0
2380.73	0
2381.04	0
2381.34	0
2381.64	0
2381.95	0
2382.25	0
2382.55	0
2382.85	0
2383.16	0
2383.46	0
2383.76	0
2384.06	0
2384.37	0
2384.67	0
2384.97	0
2385.28	0
2385.58	0
2385.88	0
2386.18	0
2386.49	0
2386.79	0
2387.09	0
2387.39	0
2387.69	0
2388	0
2388.3	0
2388.6	0
2388.9	0
2389.21	0
2389.51	0
2389.81	0
2390.11	0
2390.42	0
2390.72	0
2391.02	0
2391.32	0
2391.62	0
2391.93	0
2392.23	0
2392.53	0
2392.83	0
2393.13	0
2393.44	0
2393.74	0
2394.04	0
2394.34	0
2394.64	0
2394.95	0
2395.25	0
2395.55	0
2395.85	0
2396.15	0
2396.45	0
2396.76	0
2397.06	0
2397.36	0
2397.66	0
2397.96	0
2398.26	0
2398.57	0
2398.87	0
2399.17	0
2399.47	0
2399.77	0
2400.07	0
2400.37	0
2400.68	0
2400.98	0
2401.28	0
2401.58	0
2401.88	0
2402.18	0
2402.48	0
2402.79	0
2403.09	0
2403.39	0
2403.69	0
2403.99	0
2404.29	0
2404.59	0
2404.89	0
2405.19	0
2405.5	0
2405.8	0
2406.1	0
2406.4	0
2406.7	0
2407	0
2407.3	0
2407.6	0
2407.9	0
2408.2	0
2408.5	0
2408.8	0
2409.11	0
2409.41	0
2409.71	0
2410.01	0
2410.31	0
2410.61	0
2410.91	0
2411.21	0
2411.51	0
2411.81	0
2412.11	0
2412.41	0
2412.71	0
2413.01	0
2413.31	0
2413.61	0
2413.91	0
2414.21	0
2414.51	0
2414.81	0
2415.12	0
2415.42	0
2415.72	0
2416.02	0
2416.32	0
2416.62	0
2416.92	0
2417.22	0
2417.52	0
2417.82	0
2418.12	0
2418.42	0
2418.72	0
2419.02	0
2419.32	0
2419.62	0
2419.92	0
2420.22	0
2420.52	0
2420.82	0
2421.12	0
2421.42	0
2421.71	0
2422.01	0
2422.31	0
2422.61	0
2422.91	0
2423.21	0
2423.51	0
2423.81	0
2424.11	0
2424.41	0
2424.71	0
2425.01	0
2425.31	0
2425.61	0
2425.91	0
2426.21	0
2426.51	0
2426.81	0
2427.11	0
2427.41	0
2427.7	0
2428	0
2428.3	0
2428.6	0
2428.9	0
2429.2	0
2429.5	0
2429.8	0
2430.1	0
2430.4	0
2430.7	0
2430.99	0
2431.29	0
2431.59	0
2431.89	0
2432.19	0
2432.49	0
2432.79	0
2433.09	0
2433.39	0
2433.68	0
2433.98	0
2434.28	0
2434.58	0
2434.88	0
2435.18	0
2435.48	0
2435.78	0
2436.07	0
2436.37	0
2436.67	0
2436.97	0
2437.27	0
2437.57	0
2437.86	0
2438.16	0
2438.46	0
2438.76	0
2439.06	0
2439.36	0
2439.66	0
2439.95	0
2440.25	0
2440.55	0
2440.85	0
2441.15	0
2441.44	0
2441.74	0
2442.04	0
2442.34	0
2442.64	0
2442.93	0
2443.23	0
2443.53	0
2443.83	0
2444.13	0
2444.42	0
2444.72	0
2445.02	0
2445.32	0
2445.62	0
2445.91	0
2446.21	0
2446.51	0
2446.81	0
2447.1	0
2447.4	0
2447.7	0
2448	0
2448.3	0
2448.59	0
2448.89	0
2449.19	0
2449.49	0
2449.78	0
2450.08	0
2450.38	0
2450.68	0
2450.97	0
2451.27	0
2451.57	0
2451.87	0
2452.16	0
2452.46	0
2452.76	0
2453.05	0
2453.35	0
2453.65	0
2453.95	0
2454.24	0
2454.54	0
2454.84	0
2455.13	0
2455.43	0
2455.73	0
2456.03	0
2456.32	0
2456.62	0
2456.92	0
2457.21	0
2457.51	0
2457.81	0
2458.1	0
2458.4	0
2458.7	0
2458.99	0
2459.29	0
2459.59	0
2459.88	0
2460.18	0
2460.48	0
2460.77	0
2461.07	0
2461.37	0
2461.66	0
2461.96	0
2462.26	0
2462.55	0
2462.85	0
2463.15	0
2463.44	0
2463.74	0
2464.04	0
2464.33	0
2464.63	0
2464.92	0
2465.22	0
2465.52	0
2465.81	0
2466.11	0
2466.41	0
2466.7	0
2467	0
2467.29	0
2467.59	0
2467.89	0
2468.18	0
2468.48	0
2468.77	0
2469.07	0
2469.37	0
2469.66	0
2469.96	0
2470.25	0
2470.55	0
2470.84	0
2471.14	0
2471.44	0
2471.73	0
2472.03	0
2472.32	0
2472.62	0
2472.91	0
2473.21	0
2473.51	0
2473.8	0
2474.1	0
2474.39	0
2474.69	0
2474.98	0
2475.28	0
2475.57	0
2475.87	0
2476.17	0
2476.46	0
2476.76	0
2477.05	0
2477.35	0
2477.64	0
2477.94	0
2478.23	0
2478.53	0
2478.82	0
2479.12	0
2479.41	0
2479.71	0
2480	0
2480.3	0
2480.59	0
2480.89	0
2481.18	0
2481.48	0
2481.77	0
2482.07	0
2482.36	0
2482.66	0
2482.95	0
2483.25	0
2483.54	0
2483.84	0
2484.13	0
2484.43	0
2484.72	0
2485.02	0
2485.31	0
2485.6	0
2485.9	0
2486.19	0
2486.49	0
2486.78	0
2487.08	0
2487.37	0
2487.67	0
2487.96	0
2488.26	0
2488.55	0
2488.84	0
2489.14	0
2489.43	0
2489.73	0
2490.02	0
2490.32	0
2490.61	0
2490.9	0
2491.2	0
2491.49	0
2491.79	0
2492.08	0
2492.37	0
2492.67	0
2492.96	0
2493.26	0
2493.55	0
2493.84	0
2494.14	0
2494.43	0
2494.73	0
2495.02	0
2495.31	0
2495.61	0
2495.9	0
2496.2	0
2496.49	0
2496.78	0
2497.08	0
2497.37	0
2497.66	0
2497.96	0
2498.25	0
2498.54	0
2498.84	0
2499.13	0
2499.43	0
2499.72	0
2500.01	0
2500.31	0
2500.6	0
2500.89	0
2501.19	0
2501.48	0
2501.77	0
2502.07	0
2502.36	0
2502.65	0
2502.95	0
2503.24	0
2503.53	0
2503.82	0
2504.12	0
2504.41	0
2504.7	0
2505	0
2505.29	0
2505.58	0
2505.88	0
2506.17	0
2506.46	0
2506.76	0
2507.05	0
2507.34	0
2507.63	0
2507.93	0
2508.22	0
2508.51	0
2508.8	0
2509.1	0
2509.39	0
2509.68	0
2509.98	0
2510.27	0
2510.56	0
2510.85	0
2511.15	0
2511.44	0
2511.73	0
2512.02	0
2512.32	0
2512.61	0
2512.9	0
2513.19	0
2513.49	0
2513.78	0
2514.07	0
2514.36	0
2514.65	0
2514.95	0
2515.24	0
2515.53	0
2515.82	0
2516.12	0
2516.41	0
2516.7	0
2516.99	0
2517.28	0
2517.58	0
2517.87	0
2518.16	0
2518.45	0
2518.74	0
2519.04	0
2519.33	0
2519.62	0
2519.91	0
2520.2	0
2520.5	0
2520.79	0
2521.08	0
2521.37	0
2521.66	0
2521.95	0
2522.25	0
2522.54	0
2522.83	0
2523.12	0
2523.41	0
2523.7	0
2523.99	0
2524.29	0
2524.58	0
2524.87	0
2525.16	0
2525.45	0
2525.74	0
2526.03	0
2526.33	0
2526.62	0
2526.91	0
2527.2	0
2527.49	0
2527.78	0
2528.07	0
2528.36	0
2528.66	0
2528.95	0
2529.24	0
2529.53	0
2529.82	0
2530.11	0
2530.4	0
2530.69	0
2530.98	0
2531.27	0
2531.57	0
2531.86	0
2532.15	0
2532.44	0
2532.73	0
2533.02	0
2533.31	0
2533.6	0
2533.89	0
2534.18	0
2534.47	0
2534.76	0
2535.05	0
2535.35	0
2535.64	0
2535.93	0
2536.22	0
2536.51	0
2536.8	0
2537.09	0
2537.38	0
2537.67	0
2537.96	0
2538.25	0
2538.54	0
2538.83	0
2539.12	0
2539.41	0
2539.7	0
2539.99	0
2540.28	0
2540.57	0
2540.86	0
2541.15	0
2541.44	0
2541.73	0
2542.02	0
2542.31	0
2542.6	0
2542.89	0
2543.18	0
2543.47	0
2543.76	0
2544.05	0
2544.34	0
2544.63	0
2544.92	0
2545.21	0
2545.5	0
2545.79	0
2546.08	0
2546.37	0
2546.66	0
2546.95	0
2547.24	0
2547.53	0
2547.82	0
2548.11	0
2548.4	0
2548.69	0
2548.98	0
2549.27	0
2549.55	0
2549.84	0
2550.13	0
2550.42	0
2550.71	0
2551	0
2551.29	0
2551.58	0
2551.87	0
2552.16	0
2552.45	0
2552.74	0
2553.03	0
2553.31	0
2553.6	0
2553.89	0
2554.18	0
2554.47	0
2554.76	0
2555.05	0
2555.34	0
2555.63	0
2555.92	0
2556.2	0
2556.49	0
2556.78	0
2557.07	0
2557.36	0
2557.65	0
2557.94	0
2558.23	0
2558.51	0
2558.8	0
2559.09	0
2559.38	0
2559.67	0
2559.96	0
2560.25	0
2560.53	0
2560.82	0
2561.11	0
2561.4	0
2561.69	0
2561.98	0
2562.27	0
2562.55	0
2562.84	0
2563.13	0
2563.42	0
2563.71	0
2564	0
2564.28	0
2564.57	0
2564.86	0
2565.15	0
2565.44	0
2565.72	0
2566.01	0
2566.3	0
2566.59	0
2566.88	0
2567.16	0
2567.45	0
2567.74	0
2568.03	0
2568.32	0
2568.6	0
2568.89	0
2569.18	0
2569.47	0
2569.75	0

