Source: Spectrum Viewer

Chart: Pulse Spectrum

Series: 
Wavelength (nm)	S (a.u.)
1179.9	0
1180.29	0
1180.68	0
1181.06	0
1181.45	0
1181.83	0
1182.22	0
1182.6	0
1182.99	0
1183.38	0
1183.76	0
1184.15	0
1184.53	0
1184.92	0
1185.3	0
1185.69	0
1186.07	0
1186.46	0
1186.85	0
1187.23	0
1187.62	0
1188	0
1188.39	0
1188.77	0
1189.16	0
1189.54	0
1189.93	0
1190.31	0
1190.7	0
1191.08	0
1191.47	0
1191.85	0
1192.24	0
1192.62	0
1193.01	0
1193.39	0
1193.78	0
1194.16	0
1194.55	0
1194.93	0
1195.32	0
1195.7	0
1196.09	0
1196.47	0
1196.86	0
1197.24	0
1197.63	0
1198.01	0
1198.4	0
1198.78	0
1199.16	0
1199.55	0
1199.93	0
1200.32	0
1200.7	0
1201.09	0
1201.47	0
1201.86	0
1202.24	0
1202.63	0
1203.01	0
1203.39	0
1203.78	0
1204.16	0
1204.55	0
1204.93	0
1205.32	0
1205.7	0
1206.08	0
1206.47	0
1206.85	0
1207.24	0
1207.62	0
1208	0
1208.39	0
1208.77	0
1209.16	0
1209.54	0
1209.92	0
1210.31	0
1210.69	0
1211.08	0
1211.46	0
1211.84	0
1212.23	0
1212.61	0
1213	0
1213.38	0
1213.76	0
1214.15	0
1214.53	0
1214.91	0
1215.3	0
1215.68	0
1216.06	0
1216.45	0
1216.83	0
1217.22	0
1217.6	0
1217.98	0
1218.37	0
1218.75	0
1219.13	0
1219.52	0
1219.9	0
1220.28	0
1220.67	0
1221.05	0
1221.43	0
1221.82	0
1222.2	0
1222.58	0
1222.97	0
1223.35	0
1223.73	0
1224.11	0
1224.5	0
1224.88	0
1225.26	0
1225.65	0
1226.03	0
1226.41	0
1226.8	0
1227.18	0
1227.56	0
1227.94	0
1228.33	0
1228.71	0
1229.09	0
1229.47	0
1229.86	0
1230.24	0
1230.62	0
1231.01	0
1231.39	0
1231.77	0
1232.15	0
1232.54	0
1232.92	0
1233.3	0
1233.68	0
1234.07	0
1234.45	0
1234.83	0
1235.21	0
1235.6	0
1235.98	0
1236.36	0
1236.74	0
1237.12	0
1237.51	0
1237.89	0
1238.27	0
1238.65	0
1239.04	0
1239.42	0
1239.8	0
1240.18	0
1240.56	0
1240.95	0
1241.33	0
1241.71	0
1242.09	0
1242.47	0
1242.86	0
1243.24	0
1243.62	0
1244	0
1244.38	0
1244.77	0
1245.15	0
1245.53	0
1245.91	0
1246.29	0
1246.67	0
1247.06	0
1247.44	0
1247.82	0
1248.2	0
1248.58	0
1248.96	0
1249.34	0
1249.73	0
1250.11	0
1250.49	0
1250.87	0
1251.25	0
1251.63	0
1252.01	0
1252.4	0
1252.78	0
1253.16	0
1253.54	0
1253.92	0
1254.3	0
1254.68	0
1255.06	0
1255.45	0
1255.83	0
1256.21	0
1256.59	0
1256.97	0
1257.35	0
1257.73	0
1258.11	0
1258.49	0
1258.87	0
1259.26	0
1259.64	0
1260.02	0
1260.4	0
1260.78	0
1261.16	0
1261.54	0
1261.92	0
1262.3	0
1262.68	0
1263.06	0
1263.44	0
1263.82	0
1264.21	0
1264.59	0
1264.97	0
1265.35	0
1265.73	0
1266.11	0
1266.49	0
1266.87	0
1267.25	0
1267.63	0
1268.01	0
1268.39	0
1268.77	0
1269.15	0
1269.53	0
1269.91	0
1270.29	0
1270.67	0
1271.05	0
1271.43	0
1271.81	0
1272.19	0
1272.57	0
1272.95	0
1273.33	0
1273.71	0
1274.09	0
1274.47	0
1274.85	0
1275.23	0
1275.61	0
1275.99	0
1276.37	0
1276.75	0
1277.13	0
1277.51	0
1277.89	0
1278.27	0
1278.65	0
1279.03	0
1279.41	0
1279.79	0
1280.17	0
1280.55	0
1280.93	0
1281.31	0
1281.69	0
1282.07	0
1282.45	0
1282.82	0
1283.2	0
1283.58	0
1283.96	0
1284.34	0
1284.72	0
1285.1	0
1285.48	0
1285.86	0
1286.24	0
1286.62	0
1287	0
1287.38	0
1287.75	0
1288.13	0
1288.51	0
1288.89	0
1289.27	0
1289.65	0
1290.03	0
1290.41	0
1290.79	0
1291.17	0
1291.54	0
1291.92	0
1292.3	0
1292.68	0
1293.06	0
1293.44	0
1293.82	0
1294.2	0
1294.57	0
1294.95	0
1295.33	0
1295.71	0
1296.09	0
1296.47	0
1296.85	0
1297.22	0
1297.6	0
1297.98	0
1298.36	0
1298.74	0
1299.12	0
1299.5	0
1299.87	0
1300.25	0
1300.63	0
1301.01	0
1301.39	0
1301.77	0
1302.14	0
1302.52	0
1302.9	0
1303.28	0
1303.66	0
1304.03	0
1304.41	0
1304.79	0
1305.17	0
1305.55	0
1305.92	0
1306.3	0
1306.68	0
1307.06	0
1307.44	0
1307.81	0
1308.19	0
1308.57	0
1308.95	0
1309.32	0
1309.7	0
1310.08	0
1310.46	0
1310.84	0
1311.21	0
1311.59	0
1311.97	0
1312.35	0
1312.72	0
1313.1	0
1313.48	0
1313.86	0
1314.23	0
1314.61	0
1314.99	0
1315.37	0
1315.74	0
1316.12	0
1316.5	0
1316.87	0
1317.25	0
1317.63	0
1318.01	0
1318.38	0
1318.76	0
1319.14	0
1319.52	0
1319.89	0
1320.27	0
1320.65	0
1321.02	0
1321.4	0
1321.78	0
1322.15	0
1322.53	0
1322.91	0
1323.29	0
1323.66	0
1324.04	0
1324.42	0
1324.79	0
1325.17	0
1325.55	0
1325.92	0
1326.3	0
1326.68	0
1327.05	0
1327.43	0
1327.81	0
1328.18	0
1328.56	0
1328.94	0
1329.31	0
1329.69	0
1330.06	0
1330.44	0
1330.82	0
1331.19	0
1331.57	0
1331.95	0
1332.32	0
1332.7	0
1333.08	0
1333.45	0
1333.83	0
1334.2	0
1334.58	0
1334.96	0
1335.33	0
1335.71	0
1336.08	0
1336.46	0
1336.84	0
1337.21	0
1337.59	0
1337.96	0
1338.34	0
1338.72	0
1339.09	0
1339.47	0
1339.84	0
1340.22	0
1340.6	0
1340.97	0
1341.35	0
1341.72	0
1342.1	0
1342.47	0
1342.85	0
1343.23	0
1343.6	0
1343.98	0
1344.35	0
1344.73	0
1345.1	0
1345.48	0
1345.85	0
1346.23	0
1346.61	0
1346.98	0
1347.36	0
1347.73	0
1348.11	0
1348.48	0
1348.86	0
1349.23	0
1349.61	0
1349.98	0
1350.36	0
1350.73	0
1351.11	0
1351.48	0
1351.86	0
1352.23	0
1352.61	0
1352.98	0
1353.36	0
1353.73	0
1354.11	0
1354.48	0
1354.86	0
1355.23	0
1355.61	0
1355.98	0
1356.36	0
1356.73	0
1357.11	0
1357.48	0
1357.86	0
1358.23	0
1358.61	0
1358.98	0
1359.35	0
1359.73	0
1360.1	0
1360.48	0
1360.85	0
1361.23	0
1361.6	0
1361.98	0
1362.35	0
1362.72	0
1363.1	0
1363.47	0
1363.85	0
1364.22	0
1364.6	0
1364.97	0
1365.34	0
1365.72	0
1366.09	0
1366.47	0
1366.84	0
1367.22	0
1367.59	0
1367.96	0
1368.34	0
1368.71	0
1369.09	0
1369.46	0
1369.83	43
1370.21	40
1370.58	43
1370.96	44
1371.33	43
1371.7	43
1372.08	43
1372.45	44
1372.82	44
1373.2	44
1373.57	43
1373.95	43
1374.32	45
1374.69	43
1375.07	44
1375.44	44
1375.81	44
1376.19	43
1376.56	43
1376.93	43
1377.31	45
1377.68	44
1378.05	45
1378.43	43
1378.8	44
1379.17	43
1379.55	44
1379.92	45
1380.29	44
1380.67	44
1381.04	44
1381.41	44
1381.79	44
1382.16	45
1382.53	44
1382.91	44
1383.28	44
1383.65	39
1384.03	46
1384.4	46
1384.77	43
1385.14	45
1385.52	44
1385.89	44
1386.26	45
1386.64	44
1387.01	44
1387.38	43
1387.75	43
1388.13	45
1388.5	43
1388.87	44
1389.25	43
1389.62	44
1389.99	43
1390.36	43
1390.74	45
1391.11	44
1391.48	44
1391.85	44
1392.23	45
1392.6	42
1392.97	44
1393.34	45
1393.72	46
1394.09	43
1394.46	44
1394.83	43
1395.21	44
1395.58	45
1395.95	44
1396.32	45
1396.69	44
1397.07	43
1397.44	44
1397.81	43
1398.18	44
1398.55	44
1398.93	44
1399.3	44
1399.67	44
1400.04	43
1400.41	45
1400.79	43
1401.16	44
1401.53	44
1401.9	45
1402.27	44
1402.65	44
1403.02	46
1403.39	44
1403.76	46
1404.13	44
1404.51	41
1404.88	44
1405.25	44
1405.62	45
1405.99	46
1406.36	44
1406.74	44
1407.11	44
1407.48	44
1407.85	45
1408.22	45
1408.59	37
1408.96	44
1409.34	45
1409.71	44
1410.08	46
1410.45	45
1410.82	45
1411.19	44
1411.56	44
1411.93	45
1412.31	45
1412.68	44
1413.05	45
1413.42	45
1413.79	45
1414.16	47
1414.53	45
1414.9	44
1415.27	45
1415.65	44
1416.02	44
1416.39	45
1416.76	46
1417.13	46
1417.5	45
1417.87	46
1418.24	46
1418.61	46
1418.98	45
1419.35	46
1419.73	45
1420.1	44
1420.47	45
1420.84	44
1421.21	45
1421.58	44
1421.95	47
1422.32	45
1422.69	45
1423.06	46
1423.43	46
1423.8	45
1424.17	45
1424.54	45
1424.91	44
1425.28	45
1425.65	45
1426.02	45
1426.39	44
1426.76	46
1427.14	46
1427.51	43
1427.88	47
1428.25	45
1428.62	45
1428.99	46
1429.36	45
1429.73	44
1430.1	44
1430.47	44
1430.84	44
1431.21	46
1431.58	45
1431.95	46
1432.32	46
1432.69	46
1433.06	46
1433.43	46
1433.8	45
1434.17	46
1434.54	46
1434.91	46
1435.28	46
1435.64	47
1436.01	46
1436.38	47
1436.75	42
1437.12	44
1437.49	46
1437.86	46
1438.23	46
1438.6	46
1438.97	46
1439.34	45
1439.71	46
1440.08	47
1440.45	46
1440.82	47
1441.19	45
1441.56	42
1441.93	47
1442.3	46
1442.67	46
1443.03	46
1443.4	39
1443.77	46
1444.14	47
1444.51	45
1444.88	47
1445.25	47
1445.62	47
1445.99	48
1446.36	46
1446.73	47
1447.09	47
1447.46	48
1447.83	46
1448.2	47
1448.57	48
1448.94	48
1449.31	47
1449.68	49
1450.05	48
1450.41	46
1450.78	47
1451.15	47
1451.52	44
1451.89	48
1452.26	48
1452.63	46
1453	47
1453.36	47
1453.73	48
1454.1	46
1454.47	48
1454.84	47
1455.21	47
1455.57	48
1455.94	47
1456.31	45
1456.68	47
1457.05	48
1457.42	48
1457.78	48
1458.15	48
1458.52	45
1458.89	47
1459.26	47
1459.63	49
1459.99	48
1460.36	47
1460.73	49
1461.1	48
1461.47	48
1461.83	47
1462.2	48
1462.57	49
1462.94	47
1463.31	46
1463.67	47
1464.04	47
1464.41	47
1464.78	46
1465.15	47
1465.51	45
1465.88	48
1466.25	48
1466.62	48
1466.98	47
1467.35	49
1467.72	49
1468.09	47
1468.46	48
1468.82	45
1469.19	48
1469.56	48
1469.93	49
1470.29	48
1470.66	48
1471.03	48
1471.4	50
1471.76	48
1472.13	48
1472.5	48
1472.86	49
1473.23	48
1473.6	50
1473.97	49
1474.33	49
1474.7	49
1475.07	50
1475.44	50
1475.8	49
1476.17	50
1476.54	47
1476.9	49
1477.27	48
1477.64	49
1478	48
1478.37	50
1478.74	51
1479.11	48
1479.47	49
1479.84	48
1480.21	50
1480.57	49
1480.94	49
1481.31	49
1481.67	47
1482.04	52
1482.41	50
1482.77	50
1483.14	50
1483.51	48
1483.87	50
1484.24	50
1484.61	50
1484.97	49
1485.34	49
1485.71	49
1486.07	49
1486.44	45
1486.81	49
1487.17	50
1487.54	50
1487.9	51
1488.27	51
1488.64	49
1489	50
1489.37	48
1489.74	50
1490.1	50
1490.47	50
1490.83	50
1491.2	51
1491.57	52
1491.93	48
1492.3	50
1492.66	49
1493.03	52
1493.4	50
1493.76	52
1494.13	52
1494.49	51
1494.86	51
1495.23	52
1495.59	49
1495.96	50
1496.32	53
1496.69	44
1497.06	50
1497.42	51
1497.79	50
1498.15	45
1498.52	51
1498.88	50
1499.25	52
1499.62	52
1499.98	51
1500.35	48
1500.71	52
1501.08	51
1501.44	52
1501.81	52
1502.17	50
1502.54	50
1502.9	51
1503.27	51
1503.64	51
1504	51
1504.37	50
1504.73	51
1505.1	51
1505.46	49
1505.83	52
1506.19	50
1506.56	52
1506.92	52
1507.29	52
1507.65	53
1508.02	51
1508.38	52
1508.75	52
1509.11	51
1509.48	51
1509.84	52
1510.21	52
1510.57	52
1510.94	50
1511.3	50
1511.67	52
1512.03	51
1512.4	52
1512.76	52
1513.13	52
1513.49	52
1513.85	47
1514.22	52
1514.58	51
1514.95	53
1515.31	52
1515.68	53
1516.04	53
1516.41	51
1516.77	53
1517.14	52
1517.5	52
1517.86	52
1518.23	54
1518.59	54
1518.96	51
1519.32	51
1519.69	53
1520.05	54
1520.41	52
1520.78	51
1521.14	53
1521.51	52
1521.87	52
1522.24	52
1522.6	54
1522.96	52
1523.33	52
1523.69	52
1524.06	52
1524.42	52
1524.78	52
1525.15	52
1525.51	51
1525.88	52
1526.24	53
1526.6	54
1526.97	52
1527.33	52
1527.69	53
1528.06	51
1528.42	52
1528.79	53
1529.15	51
1529.51	52
1529.88	49
1530.24	54
1530.6	54
1530.97	51
1531.33	53
1531.69	54
1532.06	53
1532.42	53
1532.78	52
1533.15	52
1533.51	52
1533.87	50
1534.24	52
1534.6	52
1534.96	53
1535.33	54
1535.69	53
1536.05	52
1536.42	53
1536.78	52
1537.14	53
1537.51	51
1537.87	53
1538.23	50
1538.6	52
1538.96	53
1539.32	52
1539.68	53
1540.05	52
1540.41	53
1540.77	51
1541.14	53
1541.5	52
1541.86	53
1542.23	53
1542.59	55
1542.95	53
1543.31	53
1543.68	54
1544.04	53
1544.4	53
1544.76	54
1545.13	55
1545.49	54
1545.85	56
1546.21	54
1546.58	56
1546.94	56
1547.3	53
1547.66	55
1548.03	56
1548.39	54
1548.75	56
1549.11	55
1549.48	55
1549.84	56
1550.2	56
1550.56	55
1550.93	55
1551.29	56
1551.65	56
1552.01	55
1552.37	56
1552.74	56
1553.1	55
1553.46	55
1553.82	55
1554.18	55
1554.55	56
1554.91	56
1555.27	55
1555.63	55
1555.99	55
1556.36	55
1556.72	55
1557.08	56
1557.44	47
1557.8	52
1558.17	54
1558.53	55
1558.89	55
1559.25	56
1559.61	53
1559.97	53
1560.34	52
1560.7	54
1561.06	54
1561.42	54
1561.78	55
1562.14	55
1562.5	55
1562.87	53
1563.23	53
1563.59	53
1563.95	54
1564.31	53
1564.67	55
1565.03	55
1565.4	56
1565.76	57
1566.12	55
1566.48	56
1566.84	55
1567.2	54
1567.56	55
1567.92	56
1568.29	54
1568.65	55
1569.01	56
1569.37	57
1569.73	57
1570.09	55
1570.45	58
1570.81	57
1571.17	57
1571.53	57
1571.89	58
1572.26	56
1572.62	58
1572.98	57
1573.34	58
1573.7	59
1574.06	58
1574.42	59
1574.78	57
1575.14	59
1575.5	58
1575.86	60
1576.22	58
1576.58	56
1576.94	60
1577.3	60
1577.67	61
1578.03	59
1578.39	60
1578.75	60
1579.11	61
1579.47	60
1579.83	61
1580.19	59
1580.55	60
1580.91	60
1581.27	62
1581.63	60
1581.99	58
1582.35	62
1582.71	63
1583.07	62
1583.43	61
1583.79	62
1584.15	63
1584.51	61
1584.87	62
1585.23	61
1585.59	62
1585.95	62
1586.31	62
1586.67	60
1587.03	60
1587.39	61
1587.75	59
1588.11	60
1588.47	60
1588.83	59
1589.19	60
1589.55	59
1589.91	60
1590.27	60
1590.63	59
1590.99	58
1591.35	59
1591.71	58
1592.07	59
1592.42	57
1592.78	58
1593.14	56
1593.5	58
1593.86	60
1594.22	60
1594.58	57
1594.94	58
1595.3	59
1595.66	59
1596.02	57
1596.38	56
1596.74	57
1597.1	56
1597.46	56
1597.81	59
1598.17	58
1598.53	58
1598.89	56
1599.25	57
1599.61	57
1599.97	58
1600.33	58
1600.69	58
1601.05	57
1601.4	57
1601.76	57
1602.12	59
1602.48	57
1602.84	59
1603.2	59
1603.56	59
1603.92	60
1604.28	61
1604.63	61
1604.99	60
1605.35	60
1605.71	61
1606.07	59
1606.43	61
1606.79	61
1607.14	63
1607.5	64
1607.86	63
1608.22	63
1608.58	63
1608.94	63
1609.29	63
1609.65	65
1610.01	63
1610.37	64
1610.73	65
1611.09	65
1611.44	64
1611.8	63
1612.16	65
1612.52	65
1612.88	66
1613.24	65
1613.59	64
1613.95	65
1614.31	67
1614.67	66
1615.03	66
1615.38	65
1615.74	65
1616.1	66
1616.46	66
1616.82	66
1617.17	65
1617.53	63
1617.89	64
1618.25	65
1618.6	66
1618.96	66
1619.32	63
1619.68	68
1620.04	70
1620.39	69
1620.75	65
1621.11	65
1621.47	68
1621.82	69
1622.18	69
1622.54	70
1622.9	71
1623.25	69
1623.61	70
1623.97	64
1624.33	74
1624.68	73
1625.04	68
1625.4	69
1625.75	75
1626.11	74
1626.47	67
1626.83	71
1627.18	68
1627.54	70
1627.9	74
1628.26	75
1628.61	76
1628.97	75
1629.33	73
1629.68	74
1630.04	76
1630.4	80
1630.75	78
1631.11	74
1631.47	75
1631.83	76
1632.18	80
1632.54	81
1632.9	80
1633.25	82
1633.61	81
1633.97	82
1634.32	85
1634.68	87
1635.04	84
1635.39	81
1635.75	85
1636.11	89
1636.46	84
1636.82	89
1637.18	84
1637.53	89
1637.89	86
1638.25	87
1638.6	95
1638.96	92
1639.31	92
1639.67	90
1640.03	99
1640.38	99
1640.74	100
1641.1	107
1641.45	98
1641.81	105
1642.16	102
1642.52	106
1642.88	106
1643.23	107
1643.59	102
1643.95	101
1644.3	106
1644.66	105
1645.01	110
1645.37	101
1645.73	99
1646.08	105
1646.44	108
1646.79	106
1647.15	101
1647.51	99
1647.86	96
1648.22	100
1648.57	98
1648.93	100
1649.28	97
1649.64	96
1650	98
1650.35	99
1650.71	104
1651.06	98
1651.42	95
1651.77	93
1652.13	95
1652.48	96
1652.84	97
1653.2	96
1653.55	92
1653.91	93
1654.26	96
1654.62	95
1654.97	90
1655.33	92
1655.68	87
1656.04	89
1656.39	87
1656.75	87
1657.1	85
1657.46	81
1657.81	83
1658.17	81
1658.52	83
1658.88	78
1659.23	80
1659.59	78
1659.94	78
1660.3	77
1660.65	77
1661.01	78
1661.36	75
1661.72	76
1662.07	73
1662.43	74
1662.78	73
1663.14	72
1663.49	70
1663.85	71
1664.2	72
1664.56	71
1664.91	76
1665.27	73
1665.62	63
1665.98	73
1666.33	75
1666.69	75
1667.04	73
1667.39	73
1667.75	71
1668.1	76
1668.46	78
1668.81	78
1669.17	79
1669.52	78
1669.88	82
1670.23	80
1670.58	86
1670.94	86
1671.29	85
1671.65	86
1672	88
1672.36	90
1672.71	95
1673.06	97
1673.42	97
1673.77	93
1674.13	97
1674.48	106
1674.83	109
1675.19	113
1675.54	112
1675.9	115
1676.25	119
1676.6	121
1676.96	127
1677.31	126
1677.67	124
1678.02	129
1678.37	135
1678.73	140
1679.08	146
1679.43	145
1679.79	151
1680.14	155
1680.5	161
1680.85	172
1681.2	165
1681.56	171
1681.91	177
1682.26	178
1682.62	192
1682.97	192
1683.32	201
1683.68	200
1684.03	202
1684.38	209
1684.74	217
1685.09	221
1685.44	229
1685.8	226
1686.15	242
1686.5	244
1686.86	249
1687.21	259
1687.56	255
1687.92	265
1688.27	269
1688.62	279
1688.98	287
1689.33	286
1689.68	288
1690.03	294
1690.39	296
1690.74	306
1691.09	307
1691.45	312
1691.8	318
1692.15	315
1692.5	326
1692.86	334
1693.21	341
1693.56	339
1693.92	346
1694.27	352
1694.62	356
1694.97	354
1695.33	363
1695.68	364
1696.03	374
1696.38	377
1696.74	381
1697.09	383
1697.44	389
1697.79	390
1698.15	395
1698.5	401
1698.85	404
1699.2	406
1699.56	413
1699.91	407
1700.26	418
1700.61	418
1700.97	420
1701.32	422
1701.67	427
1702.02	428
1702.37	437
1702.73	432
1703.08	432
1703.43	433
1703.78	434
1704.13	441
1704.49	438
1704.84	431
1705.19	441
1705.54	442
1705.89	444
1706.25	440
1706.6	434
1706.95	440
1707.3	450
1707.65	457
1708.01	451
1708.36	449
1708.71	448
1709.06	454
1709.41	454
1709.76	456
1710.12	453
1710.47	454
1710.82	456
1711.17	460
1711.52	454
1711.87	458
1712.23	463
1712.58	463
1712.93	465
1713.28	461
1713.63	461
1713.98	474
1714.33	472
1714.69	471
1715.04	477
1715.39	474
1715.74	481
1716.09	480
1716.44	484
1716.79	481
1717.14	483
1717.5	495
1717.85	487
1718.2	498
1718.55	499
1718.9	496
1719.25	509
1719.6	504
1719.95	503
1720.3	522
1720.65	527
1721.01	538
1721.36	531
1721.71	538
1722.06	554
1722.41	549
1722.76	567
1723.11	567
1723.46	568
1723.81	582
1724.16	584
1724.51	615
1724.86	619
1725.21	634
1725.56	632
1725.92	627
1726.27	662
1726.62	657
1726.97	696
1727.32	697
1727.67	729
1728.02	748
1728.37	765
1728.72	795
1729.07	793
1729.42	812
1729.77	817
1730.12	823
1730.47	871
1730.82	871
1731.17	902
1731.52	889
1731.87	933
1732.22	954
1732.57	933
1732.92	998
1733.27	975
1733.62	1012
1733.97	1003
1734.32	1003
1734.67	1071
1735.02	1089
1735.37	1127
1735.72	1100
1736.07	1135
1736.42	1207
1736.77	1232
1737.12	1280
1737.47	1238
1737.82	1273
1738.17	1304
1738.52	1328
1738.87	1386
1739.22	1356
1739.57	1367
1739.92	1460
1740.27	1415
1740.62	1491
1740.97	1457
1741.32	1468
1741.67	1533
1742.02	1510
1742.37	1579
1742.72	1637
1743.06	1571
1743.41	1666
1743.76	1615
1744.11	1650
1744.46	1713
1744.81	1674
1745.16	1721
1745.51	1777
1745.86	1707
1746.21	1817
1746.56	1820
1746.91	1781
1747.26	1874
1747.6	1819
1747.95	1802
1748.3	1914
1748.65	1800
1749	1838
1749.35	1943
1749.7	1807
1750.05	1897
1750.4	1912
1750.75	1802
1751.09	1985
1751.44	1935
1751.79	1859
1752.14	1970
1752.49	1985
1752.84	1874
1753.19	1954
1753.54	1997
1753.88	1865
1754.23	2005
1754.58	1981
1754.93	1843
1755.28	2056
1755.63	1907
1755.98	1888
1756.32	2104
1756.67	1907
1757.02	1885
1757.37	1974
1757.72	1816
1758.07	1934
1758.42	1902
1758.76	1770
1759.11	1996
1759.46	1921
1759.81	1806
1760.16	1973
1760.5	1825
1760.85	1791
1761.2	1832
1761.55	1703
1761.9	1814
1762.25	1746
1762.59	1594
1762.94	1842
1763.29	1763
1763.64	1667
1763.99	1789
1764.33	1688
1764.68	1667
1765.03	1697
1765.38	1530
1765.73	1615
1766.07	1620
1766.42	1472
1766.77	1539
1767.12	1601
1767.46	1554
1767.81	1575
1768.16	1527
1768.51	1510
1768.85	1606
1769.2	1447
1769.55	1447
1769.9	1650
1770.25	1550
1770.59	1520
1770.94	1655
1771.29	1695
1771.64	1740
1771.98	1528
1772.33	1477
1772.68	1682
1773.02	1620
1773.37	1422
1773.72	1543
1774.07	1734
1774.41	1636
1774.76	1617
1775.11	1725
1775.46	1872
1775.8	1820
1776.15	1603
1776.5	1607
1776.84	1803
1777.19	1581
1777.54	1534
1777.89	1791
1778.23	1872
1778.58	1817
1778.93	1855
1779.27	2088
1779.62	2148
1779.97	1915
1780.31	1843
1780.66	2109
1781.01	2022
1781.35	1798
1781.7	2060
1782.05	2214
1782.39	2093
1782.74	2163
1783.09	2235
1783.43	2420
1783.78	2431
1784.13	2126
1784.47	2430
1784.82	2563
1785.17	2045
1785.51	2106
1785.86	2215
1786.21	2252
1786.55	3067
1786.9	2784
1787.25	2623
1787.59	3098
1787.94	2846
1788.29	2808
1788.63	3070
1788.98	2400
1789.32	2924
1789.67	3087
1790.02	2839
1790.36	3300
1790.71	2446
1791.06	3467
1791.4	5939
1791.75	4230
1792.09	3877
1792.44	4817
1792.79	4476
1793.13	5531
1793.48	4509
1793.82	4205
1794.17	5224
1794.52	4153
1794.86	4036
1795.21	4832
1795.55	3971
1795.9	3998
1796.24	3363
1796.59	4706
1796.94	9008
1797.28	7182
1797.63	6861
1797.97	6210
1798.32	4994
1798.66	6117
1799.01	5986
1799.36	7937
1799.7	6278
1800.05	4916
1800.39	8517
1800.74	6417
1801.08	5227
1801.43	12598
1801.77	10090
1802.12	7899
1802.46	6748
1802.81	7196
1803.15	8838
1803.5	6961
1803.85	6297
1804.19	7237
1804.54	4761
1804.88	7662
1805.23	10726
1805.57	6358
1805.92	7451
1806.26	12997
1806.61	10373
1806.95	8474
1807.3	7020
1807.64	12692
1807.99	15604
1808.33	9465
1808.68	8740
1809.02	6981
1809.37	7316
1809.71	17168
1810.06	13471
1810.4	10081
1810.75	9428
1811.09	7247
1811.43	8563
1811.78	18379
1812.12	16344
1812.47	14392
1812.81	13574
1813.16	10827
1813.5	10623
1813.85	12530
1814.19	9621
1814.54	9097
1814.88	10150
1815.23	7605
1815.57	7508
1815.91	6749
1816.26	4871
1816.6	5850
1816.95	15373
1817.29	16089
1817.64	10102
1817.98	13785
1818.32	13811
1818.67	17126
1819.01	16838
1819.36	14294
1819.7	12519
1820.05	12567
1820.39	11099
1820.73	11578
1821.08	14184
1821.42	12102
1821.77	10521
1822.11	10992
1822.45	11602
1822.8	7956
1823.14	8719
1823.49	12894
1823.83	9515
1824.17	8296
1824.52	19493
1824.86	19790
1825.2	14466
1825.55	15638
1825.89	11898
1826.24	10819
1826.58	10335
1826.92	8704
1827.27	16698
1827.61	18307
1827.95	13422
1828.3	12484
1828.64	13636
1828.98	10134
1829.33	9012
1829.67	9299
1830.02	7095
1830.36	15686
1830.7	19340
1831.05	13553
1831.39	15564
1831.73	16548
1832.08	13481
1832.42	11590
1832.76	13277
1833.1	10184
1833.45	9994
1833.79	11088
1834.13	9606
1834.48	8621
1834.82	10220
1835.16	10931
1835.51	10367
1835.85	11580
1836.19	9331
1836.54	8685
1836.88	9704
1837.22	7313
1837.56	6809
1837.91	6179
1838.25	6837
1838.59	10324
1838.94	12952
1839.28	13533
1839.62	10067
1839.96	9469
1840.31	8365
1840.65	9887
1840.99	8249
1841.34	6919
1841.68	7054
1842.02	16054
1842.36	17184
1842.71	12800
1843.05	11178
1843.39	10190
1843.73	5955
1844.08	9801
1844.42	18311
1844.76	14678
1845.1	13789
1845.45	14967
1845.79	11905
1846.13	8799
1846.47	9815
1846.81	12060
1847.16	9904
1847.5	9813
1847.84	7320
1848.18	9030
1848.53	14790
1848.87	13099
1849.21	9758
1849.55	10020
1849.89	9053
1850.24	7697
1850.58	9005
1850.92	7466
1851.26	7008
1851.6	7659
1851.95	7125
1852.29	7533
1852.63	7134
1852.97	6964
1853.31	6238
1853.66	6511
1854	5465
1854.34	4878
1854.68	5289
1855.02	5084
1855.36	9054
1855.71	7733
1856.05	6294
1856.39	5283
1856.73	5319
1857.07	5053
1857.41	4508
1857.76	4884
1858.1	4684
1858.44	4258
1858.78	4799
1859.12	3697
1859.46	3889
1859.8	3714
1860.15	3456
1860.49	3651
1860.83	3524
1861.17	5632
1861.51	6274
1861.85	4905
1862.19	3511
1862.53	3412
1862.88	3528
1863.22	4158
1863.56	4243
1863.9	3711
1864.24	3286
1864.58	4213
1864.92	4120
1865.26	3207
1865.6	3451
1865.94	3015
1866.29	2870
1866.63	2839
1866.97	2531
1867.31	2905
1867.65	2821
1867.99	2983
1868.33	3947
1868.67	3192
1869.01	2975
1869.35	3231
1869.69	3836
1870.03	6048
1870.37	4065
1870.72	3653
1871.06	3501
1871.4	2931
1871.74	2512
1872.08	2552
1872.42	2950
1872.76	3658
1873.1	5781
1873.44	3419
1873.78	2464
1874.12	2781
1874.46	2670
1874.8	2951
1875.14	5191
1875.48	4681
1875.82	2792
1876.16	2792
1876.5	3713
1876.84	3417
1877.18	2785
1877.52	2407
1877.86	2286
1878.2	2667
1878.54	2557
1878.88	2561
1879.22	2647
1879.56	2770
1879.9	2790
1880.24	3267
1880.58	3007
1880.92	2938
1881.26	3695
1881.6	3147
1881.94	2731
1882.28	2912
1882.62	3231
1882.96	3574
1883.3	4368
1883.64	3755
1883.98	2488
1884.32	2576
1884.66	2945
1885	2857
1885.34	2894
1885.68	3435
1886.02	3277
1886.36	2976
1886.7	2961
1887.04	3149
1887.38	2904
1887.72	3213
1888.06	3270
1888.39	3447
1888.73	3459
1889.07	3994
1889.41	4087
1889.75	4882
1890.09	3883
1890.43	3957
1890.77	4344
1891.11	3324
1891.45	2652
1891.79	2864
1892.13	2910
1892.47	3305
1892.8	3306
1893.14	3469
1893.48	3442
1893.82	3901
1894.16	3876
1894.5	4074
1894.84	3469
1895.18	3582
1895.52	3652
1895.86	3953
1896.19	3988
1896.53	4002
1896.87	4230
1897.21	4362
1897.55	4283
1897.89	4045
1898.23	4422
1898.57	4421
1898.9	4991
1899.24	4144
1899.58	3939
1899.92	4107
1900.26	4447
1900.6	4408
1900.94	4335
1901.27	4349
1901.61	4457
1901.95	4171
1902.29	4400
1902.63	4278
1902.97	4406
1903.3	4317
1903.64	4490
1903.98	4406
1904.32	4715
1904.66	4571
1905	4325
1905.33	4250
1905.67	4580
1906.01	4532
1906.35	4740
1906.69	4539
1907.02	4875
1907.36	4705
1907.7	4331
1908.04	4261
1908.38	4650
1908.71	4565
1909.05	4750
1909.39	4489
1909.73	4703
1910.07	4522
1910.4	4466
1910.74	4365
1911.08	4310
1911.42	4283
1911.76	4468
1912.09	4394
1912.43	4424
1912.77	4222
1913.11	4262
1913.44	4252
1913.78	4346
1914.12	4316
1914.46	4253
1914.79	4209
1915.13	4079
1915.47	4181
1915.81	4244
1916.14	4031
1916.48	3877
1916.82	4155
1917.16	4033
1917.49	4119
1917.83	4024
1918.17	4119
1918.5	3943
1918.84	4032
1919.18	4019
1919.52	3983
1919.85	4043
1920.19	4072
1920.53	4029
1920.87	3920
1921.2	4013
1921.54	3969
1921.88	4104
1922.21	4006
1922.55	4126
1922.89	3939
1923.22	4047
1923.56	3962
1923.9	3966
1924.23	3961
1924.57	3887
1924.91	3929
1925.25	3961
1925.58	3979
1925.92	3849
1926.26	3879
1926.59	3758
1926.93	3812
1927.27	3647
1927.6	3795
1927.94	3656
1928.28	3595
1928.61	3590
1928.95	3623
1929.29	3473
1929.62	3575
1929.96	3510
1930.29	3472
1930.63	3341
1930.97	3567
1931.3	3469
1931.64	3445
1931.98	3435
1932.31	3234
1932.65	3285
1932.99	3291
1933.32	3285
1933.66	3185
1933.99	3169
1934.33	3057
1934.67	2946
1935	3149
1935.34	2997
1935.67	2971
1936.01	2972
1936.35	2974
1936.68	2940
1937.02	3028
1937.35	2997
1937.69	2833
1938.03	2896
1938.36	2740
1938.7	2832
1939.03	2708
1939.37	2777
1939.7	2637
1940.04	2536
1940.38	2629
1940.71	2556
1941.05	2605
1941.38	2534
1941.72	2506
1942.05	2458
1942.39	2585
1942.73	2500
1943.06	2544
1943.4	2551
1943.73	2546
1944.07	2490
1944.4	2522
1944.74	2471
1945.07	2389
1945.41	2452
1945.74	2363
1946.08	2414
1946.42	2352
1946.75	2488
1947.09	2396
1947.42	2351
1947.76	2349
1948.09	2395
1948.43	2332
1948.76	2373
1949.1	2364
1949.43	2343
1949.77	2265
1950.1	2343
1950.44	2290
1950.77	2292
1951.11	2240
1951.44	2318
1951.78	2153
1952.11	2230
1952.45	2192
1952.78	2210
1953.12	2064
1953.45	2166
1953.79	2122
1954.12	2124
1954.46	2074
1954.79	2110
1955.12	2058
1955.46	2004
1955.79	2034
1956.13	2010
1956.46	1982
1956.8	1898
1957.13	1999
1957.47	1902
1957.8	1928
1958.14	1853
1958.47	1984
1958.8	1873
1959.14	1863
1959.47	1837
1959.81	1899
1960.14	1848
1960.48	1803
1960.81	1856
1961.14	1824
1961.48	1785
1961.81	1800
1962.15	1844
1962.48	1761
1962.82	1719
1963.15	1777
1963.48	1774
1963.82	1679
1964.15	1713
1964.49	1707
1964.82	1720
1965.15	1642
1965.49	1714
1965.82	1660
1966.16	1659
1966.49	1598
1966.82	1690
1967.16	1597
1967.49	1573
1967.83	1558
1968.16	1635
1968.49	1594
1968.83	1496
1969.16	1553
1969.49	1513
1969.83	1475
1970.16	1410
1970.49	1503
1970.83	1428
1971.16	1382
1971.5	1344
1971.83	1426
1972.16	1343
1972.5	1311
1972.83	1315
1973.16	1295
1973.5	1205
1973.83	1169
1974.16	1253
1974.5	1203
1974.83	1127
1975.16	1100
1975.5	1215
1975.83	1145
1976.16	1079
1976.49	1034
1976.83	1070
1977.16	990
1977.49	1001
1977.83	1017
1978.16	949
1978.49	933
1978.83	906
1979.16	958
1979.49	904
1979.83	869
1980.16	885
1980.49	876
1980.82	792
1981.16	821
1981.49	830
1981.82	854
1982.15	759
1982.49	782
1982.82	781
1983.15	760
1983.49	700
1983.82	751
1984.15	667
1984.48	632
1984.82	617
1985.15	675
1985.48	594
1985.81	599
1986.15	576
1986.48	538
1986.81	510
1987.14	547
1987.48	518
1987.81	476
1988.14	458
1988.47	484
1988.81	432
1989.14	424
1989.47	419
1989.8	412
1990.13	376
1990.47	377
1990.8	377
1991.13	357
1991.46	333
1991.79	338
1992.13	310
1992.46	284
1992.79	283
1993.12	290
1993.45	265
1993.79	250
1994.12	254
1994.45	240
1994.78	233
1995.11	229
1995.45	238
1995.78	217
1996.11	221
1996.44	220
1996.77	228
1997.1	203
1997.44	218
1997.77	209
1998.1	203
1998.43	199
1998.76	216
1999.09	196
1999.43	199
1999.76	204
2000.09	198
2000.42	199
2000.75	208
2001.08	209
2001.41	194
2001.75	225
2002.08	216
2002.41	212
2002.74	218
2003.07	239
2003.4	222
2003.73	239
2004.06	247
2004.4	253
2004.73	248
2005.06	287
2005.39	266
2005.72	265
2006.05	280
2006.38	300
2006.71	284
2007.04	313
2007.37	341
2007.71	327
2008.04	344
2008.37	378
2008.7	369
2009.03	366
2009.36	402
2009.69	395
2010.02	377
2010.35	392
2010.68	422
2011.01	405
2011.34	398
2011.67	419
2012.01	424
2012.34	408
2012.67	437
2013	457
2013.33	437
2013.66	449
2013.99	476
2014.32	497
2014.65	473
2014.98	506
2015.31	504
2015.64	523
2015.97	495
2016.3	547
2016.63	531
2016.96	528
2017.29	511
2017.62	559
2017.95	541
2018.28	533
2018.61	549
2018.94	568
2019.27	563
2019.6	544
2019.93	603
2020.26	581
2020.59	583
2020.92	555
2021.25	594
2021.58	565
2021.91	555
2022.24	548
2022.57	563
2022.9	571
2023.23	538
2023.56	559
2023.89	560
2024.22	562
2024.55	530
2024.88	557
2025.21	550
2025.54	534
2025.87	521
2026.2	547
2026.53	531
2026.86	509
2027.19	516
2027.52	516
2027.85	516
2028.18	486
2028.51	507
2028.84	505
2029.16	487
2029.49	476
2029.82	482
2030.15	497
2030.48	460
2030.81	465
2031.14	455
2031.47	472
2031.8	455
2032.13	432
2032.46	441
2032.79	439
2033.12	434
2033.44	414
2033.77	421
2034.1	425
2034.43	411
2034.76	398
2035.09	387
2035.42	397
2035.75	389
2036.08	363
2036.41	368
2036.73	358
2037.06	363
2037.39	350
2037.72	340
2038.05	354
2038.38	341
2038.71	322
2039.04	319
2039.36	322
2039.69	315
2040.02	303
2040.35	299
2040.68	289
2041.01	293
2041.34	274
2041.66	272
2041.99	272
2042.32	267
2042.65	271
2042.98	257
2043.31	266
2043.63	267
2043.96	253
2044.29	250
2044.62	248
2044.95	248
2045.28	234
2045.6	236
2045.93	228
2046.26	227
2046.59	215
2046.92	210
2047.24	215
2047.57	203
2047.9	195
2048.23	192
2048.56	200
2048.88	190
2049.21	191
2049.54	196
2049.87	193
2050.2	189
2050.52	190
2050.85	196
2051.18	190
2051.51	184
2051.83	185
2052.16	188
2052.49	182
2052.82	187
2053.15	184
2053.47	187
2053.8	173
2054.13	181
2054.46	181
2054.78	175
2055.11	176
2055.44	177
2055.77	181
2056.09	172
2056.42	177
2056.75	176
2057.08	175
2057.4	169
2057.73	173
2058.06	172
2058.38	174
2058.71	168
2059.04	170
2059.37	170
2059.69	164
2060.02	171
2060.35	168
2060.67	172
2061	168
2061.33	166
2061.66	170
2061.98	169
2062.31	171
2062.64	165
2062.96	172
2063.29	168
2063.62	170
2063.94	169
2064.27	171
2064.6	167
2064.92	169
2065.25	162
2065.58	169
2065.91	166
2066.23	165
2066.56	167
2066.89	165
2067.21	165
2067.54	167
2067.87	164
2068.19	165
2068.52	165
2068.84	164
2069.17	164
2069.5	164
2069.82	161
2070.15	162
2070.48	161
2070.8	160
2071.13	161
2071.46	158
2071.78	158
2072.11	160
2072.43	162
2072.76	157
2073.09	156
2073.41	157
2073.74	157
2074.07	158
2074.39	158
2074.72	156
2075.04	156
2075.37	156
2075.7	157
2076.02	157
2076.35	156
2076.67	152
2077	154
2077.33	154
2077.65	154
2077.98	154
2078.3	153
2078.63	153
2078.95	151
2079.28	151
2079.61	154
2079.93	152
2080.26	148
2080.58	150
2080.91	151
2081.23	152
2081.56	151
2081.89	150
2082.21	149
2082.54	149
2082.86	150
2083.19	151
2083.51	150
2083.84	151
2084.16	151
2084.49	152
2084.81	153
2085.14	152
2085.46	150
2085.79	153
2086.12	152
2086.44	156
2086.77	151
2087.09	154
2087.42	154
2087.74	154
2088.07	154
2088.39	154
2088.72	154
2089.04	152
2089.37	154
2089.69	154
2090.02	157
2090.34	154
2090.67	153
2090.99	151
2091.32	153
2091.64	142
2091.97	149
2092.29	150
2092.62	152
2092.94	149
2093.26	152
2093.59	150
2093.91	150
2094.24	146
2094.56	139
2094.89	145
2095.21	145
2095.54	143
2095.86	143
2096.19	135
2096.51	140
2096.84	143
2097.16	142
2097.48	139
2097.81	134
2098.13	135
2098.46	135
2098.78	134
2099.11	132
2099.43	132
2099.75	132
2100.08	131
2100.4	129
2100.73	131
2101.05	125
2101.38	126
2101.7	125
2102.02	123
2102.35	125
2102.67	125
2103	121
2103.32	120
2103.64	116
2103.97	116
2104.29	118
2104.62	117
2104.94	119
2105.26	116
2105.59	115
2105.91	111
2106.23	116
2106.56	116
2106.88	113
2107.21	111
2107.53	111
2107.85	111
2108.18	111
2108.5	111
2108.82	111
2109.15	109
2109.47	110
2109.79	109
2110.12	112
2110.44	111
2110.76	109
2111.09	108
2111.41	111
2111.73	109
2112.06	111
2112.38	108
2112.7	107
2113.03	109
2113.35	105
2113.67	109
2114	107
2114.32	108
2114.64	109
2114.97	109
2115.29	107
2115.61	107
2115.94	110
2116.26	110
2116.58	109
2116.91	110
2117.23	110
2117.55	108
2117.87	114
2118.2	113
2118.52	112
2118.84	113
2119.17	117
2119.49	116
2119.81	113
2120.13	115
2120.46	116
2120.78	118
2121.1	119
2121.42	110
2121.75	117
2122.07	118
2122.39	119
2122.72	118
2123.04	117
2123.36	116
2123.68	117
2124.01	118
2124.33	115
2124.65	115
2124.97	115
2125.29	117
2125.62	116
2125.94	114
2126.26	113
2126.58	116
2126.91	115
2127.23	114
2127.55	105
2127.87	111
2128.2	113
2128.52	113
2128.84	113
2129.16	108
2129.48	112
2129.81	112
2130.13	109
2130.45	107
2130.77	108
2131.09	109
2131.42	108
2131.74	106
2132.06	107
2132.38	107
2132.7	106
2133.02	105
2133.35	102
2133.67	103
2133.99	104
2134.31	101
2134.63	101
2134.96	97
2135.28	100
2135.6	101
2135.92	99
2136.24	98
2136.56	99
2136.88	102
2137.21	98
2137.53	97
2137.85	98
2138.17	97
2138.49	97
2138.81	92
2139.13	95
2139.46	98
2139.78	98
2140.1	93
2140.42	94
2140.74	96
2141.06	96
2141.38	93
2141.7	93
2142.03	94
2142.35	94
2142.67	92
2142.99	93
2143.31	94
2143.63	95
2143.95	93
2144.27	91
2144.59	92
2144.91	95
2145.24	94
2145.56	91
2145.88	91
2146.2	93
2146.52	93
2146.84	91
2147.16	92
2147.48	89
2147.8	91
2148.12	93
2148.44	91
2148.76	91
2149.08	90
2149.41	91
2149.73	92
2150.05	91
2150.37	89
2150.69	91
2151.01	91
2151.33	91
2151.65	91
2151.97	91
2152.29	88
2152.61	91
2152.93	92
2153.25	88
2153.57	89
2153.89	89
2154.21	89
2154.53	89
2154.85	86
2155.17	87
2155.49	87
2155.81	89
2156.13	88
2156.45	87
2156.77	87
2157.09	88
2157.41	88
2157.73	87
2158.05	87
2158.37	84
2158.69	86
2159.01	89
2159.33	84
2159.65	83
2159.97	86
2160.29	85
2160.61	88
2160.93	87
2161.25	84
2161.57	84
2161.89	82
2162.21	86
2162.53	85
2162.85	84
2163.17	81
2163.49	80
2163.81	84
2164.13	83
2164.45	84
2164.77	83
2165.08	78
2165.4	81
2165.72	83
2166.04	83
2166.36	81
2166.68	80
2167	81
2167.32	80
2167.64	81
2167.96	80
2168.28	81
2168.6	79
2168.92	80
2169.24	81
2169.55	81
2169.87	80
2170.19	79
2170.51	77
2170.83	79
2171.15	78
2171.47	79
2171.79	79
2172.11	77
2172.43	80
2172.74	78
2173.06	79
2173.38	78
2173.7	78
2174.02	80
2174.34	78
2174.66	77
2174.98	77
2175.29	76
2175.61	79
2175.93	79
2176.25	77
2176.57	76
2176.89	75
2177.21	76
2177.52	77
2177.84	77
2178.16	76
2178.48	76
2178.8	76
2179.12	75
2179.43	75
2179.75	74
2180.07	74
2180.39	70
2180.71	75
2181.03	74
2181.34	73
2181.66	74
2181.98	73
2182.3	73
2182.62	71
2182.93	74
2183.25	73
2183.57	73
2183.89	74
2184.21	72
2184.52	74
2184.84	73
2185.16	73
2185.48	72
2185.8	72
2186.11	73
2186.43	73
2186.75	72
2187.07	70
2187.39	70
2187.7	71
2188.02	69
2188.34	71
2188.66	68
2188.97	69
2189.29	71
2189.61	71
2189.93	72
2190.24	71
2190.56	69
2190.88	69
2191.2	71
2191.51	70
2191.83	70
2192.15	69
2192.47	70
2192.78	69
2193.1	71
2193.42	68
2193.74	69
2194.05	70
2194.37	69
2194.69	66
2195	68
2195.32	70
2195.64	69
2195.96	68
2196.27	67
2196.59	68
2196.91	67
2197.22	65
2197.54	67
2197.86	68
2198.18	67
2198.49	66
2198.81	68
2199.13	66
2199.44	68
2199.76	69
2200.08	66
2200.39	65
2200.71	65
2201.03	68
2201.34	67
2201.66	66
2201.98	66
2202.29	64
2202.61	67
2202.93	67
2203.24	66
2203.56	64
2203.88	65
2204.19	67
2204.51	65
2204.83	66
2205.14	67
2205.46	66
2205.78	65
2206.09	65
2206.41	65
2206.72	66
2207.04	64
2207.36	65
2207.67	62
2207.99	63
2208.31	63
2208.62	65
2208.94	64
2209.25	65
2209.57	62
2209.89	63
2210.2	63
2210.52	65
2210.83	63
2211.15	63
2211.47	65
2211.78	65
2212.1	65
2212.41	64
2212.73	61
2213.05	64
2213.36	65
2213.68	64
2213.99	66
2214.31	62
2214.62	61
2214.94	64
2215.26	65
2215.57	63
2215.89	61
2216.2	62
2216.52	63
2216.83	63
2217.15	62
2217.46	61
2217.78	63
2218.1	61
2218.41	62
2218.73	63
2219.04	62
2219.36	62
2219.67	62
2219.99	61
2220.3	63
2220.62	61
2220.93	61
2221.25	61
2221.56	62
2221.88	62
2222.19	61
2222.51	61
2222.82	60
2223.14	61
2223.45	54
2223.77	62
2224.08	63
2224.4	62
2224.71	61
2225.03	60
2225.34	61
2225.66	62
2225.97	61
2226.29	53
2226.6	61
2226.92	61
2227.23	59
2227.55	61
2227.86	60
2228.18	62
2228.49	60
2228.81	59
2229.12	59
2229.44	62
2229.75	61
2230.07	61
2230.38	59
2230.69	59
2231.01	61
2231.32	60
2231.64	61
2231.95	60
2232.27	59
2232.58	59
2232.9	59
2233.21	58
2233.52	60
2233.84	58
2234.15	61
2234.47	59
2234.78	58
2235.1	60
2235.41	59
2235.72	59
2236.04	58
2236.35	58
2236.67	59
2236.98	58
2237.29	56
2237.61	59
2237.92	58
2238.24	58
2238.55	59
2238.86	59
2239.18	57
2239.49	59
2239.8	57
2240.12	54
2240.43	59
2240.75	58
2241.06	57
2241.37	57
2241.69	59
2242	57
2242.31	58
2242.63	57
2242.94	56
2243.26	58
2243.57	56
2243.88	55
2244.2	57
2244.51	57
2244.82	58
2245.14	57
2245.45	57
2245.76	58
2246.08	58
2246.39	57
2246.7	57
2247.02	57
2247.33	57
2247.64	54
2247.96	56
2248.27	56
2248.58	56
2248.9	58
2249.21	51
2249.52	56
2249.83	57
2250.15	57
2250.46	57
2250.77	56
2251.09	56
2251.4	57
2251.71	55
2252.03	57
2252.34	55
2252.65	56
2252.96	55
2253.28	55
2253.59	57
2253.9	57
2254.21	55
2254.53	55
2254.84	55
2255.15	56
2255.47	54
2255.78	53
2256.09	56
2256.4	55
2256.72	56
2257.03	54
2257.34	55
2257.65	54
2257.97	55
2258.28	55
2258.59	54
2258.9	55
2259.22	56
2259.53	54
2259.84	54
2260.15	53
2260.46	54
2260.78	54
2261.09	53
2261.4	54
2261.71	52
2262.03	53
2262.34	54
2262.65	55
2262.96	54
2263.27	54
2263.59	53
2263.9	53
2264.21	53
2264.52	53
2264.83	54
2265.15	54
2265.46	53
2265.77	53
2266.08	53
2266.39	54
2266.7	55
2267.02	54
2267.33	51
2267.64	53
2267.95	51
2268.26	53
2268.57	53
2268.89	53
2269.2	52
2269.51	55
2269.82	52
2270.13	53
2270.44	53
2270.76	53
2271.07	51
2271.38	50
2271.69	54
2272	49
2272.31	52
2272.62	50
2272.93	51
2273.25	46
2273.56	53
2273.87	51
2274.18	52
2274.49	52
2274.8	52
2275.11	53
2275.42	50
2275.74	52
2276.05	52
2276.36	51
2276.67	52
2276.98	51
2277.29	52
2277.6	50
2277.91	50
2278.22	51
2278.53	52
2278.85	48
2279.16	49
2279.47	51
2279.78	45
2280.09	50
2280.4	52
2280.71	51
2281.02	51
2281.33	49
2281.64	52
2281.95	50
2282.26	52
2282.57	51
2282.88	50
2283.19	49
2283.5	51
2283.82	50
2284.13	50
2284.44	51
2284.75	51
2285.06	50
2285.37	50
2285.68	51
2285.99	50
2286.3	50
2286.61	52
2286.92	50
2287.23	51
2287.54	51
2287.85	50
2288.16	50
2288.47	50
2288.78	49
2289.09	50
2289.4	50
2289.71	49
2290.02	49
2290.33	50
2290.64	49
2290.95	49
2291.26	51
2291.57	49
2291.88	50
2292.19	48
2292.5	47
2292.81	50
2293.12	0
2293.43	0
2293.74	0
2294.05	0
2294.36	0
2294.67	0
2294.98	0
2295.29	0
2295.6	0
2295.91	0
2296.21	0
2296.52	0
2296.83	0
2297.14	0
2297.45	0
2297.76	0
2298.07	0
2298.38	0
2298.69	0
2299	0
2299.31	0
2299.62	0
2299.93	0
2300.24	0
2300.55	0
2300.85	0
2301.16	0
2301.47	0
2301.78	0
2302.09	0
2302.4	0
2302.71	0
2303.02	0
2303.33	0
2303.64	0
2303.94	0
2304.25	0
2304.56	0
2304.87	0
2305.18	0
2305.49	0
2305.8	0
2306.11	0
2306.42	0
2306.72	0
2307.03	0
2307.34	0
2307.65	0
2307.96	0
2308.27	0
2308.58	0
2308.88	0
2309.19	0
2309.5	0
2309.81	0
2310.12	0
2310.43	0
2310.74	0
2311.04	0
2311.35	0
2311.66	0
2311.97	0
2312.28	0
2312.59	0
2312.89	0
2313.2	0
2313.51	0
2313.82	0
2314.13	0
2314.43	0
2314.74	0
2315.05	0
2315.36	0
2315.67	0
2315.97	0
2316.28	0
2316.59	0
2316.9	0
2317.21	0
2317.51	0
2317.82	0
2318.13	0
2318.44	0
2318.75	0
2319.05	0
2319.36	0
2319.67	0
2319.98	0
2320.28	0
2320.59	0
2320.9	0
2321.21	0
2321.51	0
2321.82	0
2322.13	0
2322.44	0
2322.74	0
2323.05	0
2323.36	0
2323.67	0
2323.97	0
2324.28	0
2324.59	0
2324.9	0
2325.2	0
2325.51	0
2325.82	0
2326.13	0
2326.43	0
2326.74	0
2327.05	0
2327.35	0
2327.66	0
2327.97	0
2328.27	0
2328.58	0
2328.89	0
2329.2	0
2329.5	0
2329.81	0
2330.12	0
2330.42	0
2330.73	0
2331.04	0
2331.34	0
2331.65	0
2331.96	0
2332.26	0
2332.57	0
2332.88	0
2333.18	0
2333.49	0
2333.8	0
2334.1	0
2334.41	0
2334.72	0
2335.02	0
2335.33	0
2335.64	0
2335.94	0
2336.25	0
2336.56	0
2336.86	0
2337.17	0
2337.48	0
2337.78	0
2338.09	0
2338.39	0
2338.7	0
2339.01	0
2339.31	0
2339.62	0
2339.93	0
2340.23	0
2340.54	0
2340.84	0
2341.15	0
2341.46	0
2341.76	0
2342.07	0
2342.37	0
2342.68	0
2342.99	0
2343.29	0
2343.6	0
2343.9	0
2344.21	0
2344.51	0
2344.82	0
2345.13	0
2345.43	0
2345.74	0
2346.04	0
2346.35	0
2346.65	0
2346.96	0
2347.27	0
2347.57	0
2347.88	0
2348.18	0
2348.49	0
2348.79	0
2349.1	0
2349.4	0
2349.71	0
2350.01	0
2350.32	0
2350.63	0
2350.93	0
2351.24	0
2351.54	0
2351.85	0
2352.15	0
2352.46	0
2352.76	0
2353.07	0
2353.37	0
2353.68	0
2353.98	0
2354.29	0
2354.59	0
2354.9	0
2355.2	0
2355.51	0
2355.81	0
2356.12	0
2356.42	0
2356.73	0
2357.03	0
2357.34	0
2357.64	0
2357.95	0
2358.25	0
2358.55	0
2358.86	0
2359.16	0
2359.47	0
2359.77	0
2360.08	0
2360.38	0
2360.69	0
2360.99	0
2361.3	0
2361.6	0
2361.9	0
2362.21	0
2362.51	0
2362.82	0
2363.12	0
2363.43	0
2363.73	0
2364.04	0
2364.34	0
2364.64	0
2364.95	0
2365.25	0
2365.56	0
2365.86	0
2366.16	0
2366.47	0
2366.77	0
2367.08	0
2367.38	0
2367.68	0
2367.99	0
2368.29	0
2368.6	0
2368.9	0
2369.2	0
2369.51	0
2369.81	0
2370.12	0
2370.42	0
2370.72	0
2371.03	0
2371.33	0
2371.63	0
2371.94	0
2372.24	0
2372.55	0
2372.85	0
2373.15	0
2373.46	0
2373.76	0
2374.06	0
2374.37	0
2374.67	0
2374.97	0
2375.28	0
2375.58	0
2375.88	0
2376.19	0
2376.49	0
2376.79	0
2377.1	0
2377.4	0
2377.7	0
2378.01	0
2378.31	0
2378.61	0
2378.92	0
2379.22	0
2379.52	0
2379.82	0
2380.13	0
2380.43	0
2380.73	0
2381.04	0
2381.34	0
2381.64	0
2381.95	0
2382.25	0
2382.55	0
2382.85	0
2383.16	0
2383.46	0
2383.76	0
2384.06	0
2384.37	0
2384.67	0
2384.97	0
2385.28	0
2385.58	0
2385.88	0
2386.18	0
2386.49	0
2386.79	0
2387.09	0
2387.39	0
2387.69	0
2388	0
2388.3	0
2388.6	0
2388.9	0
2389.21	0
2389.51	0
2389.81	0
2390.11	0
2390.42	0
2390.72	0
2391.02	0
2391.32	0
2391.62	0
2391.93	0
2392.23	0
2392.53	0
2392.83	0
2393.13	0
2393.44	0
2393.74	0
2394.04	0
2394.34	0
2394.64	0
2394.95	0
2395.25	0
2395.55	0
2395.85	0
2396.15	0
2396.45	0
2396.76	0
2397.06	0
2397.36	0
2397.66	0
2397.96	0
2398.26	0
2398.57	0
2398.87	0
2399.17	0
2399.47	0
2399.77	0
2400.07	0
2400.37	0
2400.68	0
2400.98	0
2401.28	0
2401.58	0
2401.88	0
2402.18	0
2402.48	0
2402.79	0
2403.09	0
2403.39	0
2403.69	0
2403.99	0
2404.29	0
2404.59	0
2404.89	0
2405.19	0
2405.5	0
2405.8	0
2406.1	0
2406.4	0
2406.7	0
2407	0
2407.3	0
2407.6	0
2407.9	0
2408.2	0
2408.5	0
2408.8	0
2409.11	0
2409.41	0
2409.71	0
2410.01	0
2410.31	0
2410.61	0
2410.91	0
2411.21	0
2411.51	0
2411.81	0
2412.11	0
2412.41	0
2412.71	0
2413.01	0
2413.31	0
2413.61	0
2413.91	0
2414.21	0
2414.51	0
2414.81	0
2415.12	0
2415.42	0
2415.72	0
2416.02	0
2416.32	0
2416.62	0
2416.92	0
2417.22	0
2417.52	0
2417.82	0
2418.12	0
2418.42	0
2418.72	0
2419.02	0
2419.32	0
2419.62	0
2419.92	0
2420.22	0
2420.52	0
2420.82	0
2421.12	0
2421.42	0
2421.71	0
2422.01	0
2422.31	0
2422.61	0
2422.91	0
2423.21	0
2423.51	0
2423.81	0
2424.11	0
2424.41	0
2424.71	0
2425.01	0
2425.31	0
2425.61	0
2425.91	0
2426.21	0
2426.51	0
2426.81	0
2427.11	0
2427.41	0
2427.7	0
2428	0
2428.3	0
2428.6	0
2428.9	0
2429.2	0
2429.5	0
2429.8	0
2430.1	0
2430.4	0
2430.7	0
2430.99	0
2431.29	0
2431.59	0
2431.89	0
2432.19	0
2432.49	0
2432.79	0
2433.09	0
2433.39	0
2433.68	0
2433.98	0
2434.28	0
2434.58	0
2434.88	0
2435.18	0
2435.48	0
2435.78	0
2436.07	0
2436.37	0
2436.67	0
2436.97	0
2437.27	0
2437.57	0
2437.86	0
2438.16	0
2438.46	0
2438.76	0
2439.06	0
2439.36	0
2439.66	0
2439.95	0
2440.25	0
2440.55	0
2440.85	0
2441.15	0
2441.44	0
2441.74	0
2442.04	0
2442.34	0
2442.64	0
2442.93	0
2443.23	0
2443.53	0
2443.83	0
2444.13	0
2444.42	0
2444.72	0
2445.02	0
2445.32	0
2445.62	0
2445.91	0
2446.21	0
2446.51	0
2446.81	0
2447.1	0
2447.4	0
2447.7	0
2448	0
2448.3	0
2448.59	0
2448.89	0
2449.19	0
2449.49	0
2449.78	0
2450.08	0
2450.38	0
2450.68	0
2450.97	0
2451.27	0
2451.57	0
2451.87	0
2452.16	0
2452.46	0
2452.76	0
2453.05	0
2453.35	0
2453.65	0
2453.95	0
2454.24	0
2454.54	0
2454.84	0
2455.13	0
2455.43	0
2455.73	0
2456.03	0
2456.32	0
2456.62	0
2456.92	0
2457.21	0
2457.51	0
2457.81	0
2458.1	0
2458.4	0
2458.7	0
2458.99	0
2459.29	0
2459.59	0
2459.88	0
2460.18	0
2460.48	0
2460.77	0
2461.07	0
2461.37	0
2461.66	0
2461.96	0
2462.26	0
2462.55	0
2462.85	0
2463.15	0
2463.44	0
2463.74	0
2464.04	0
2464.33	0
2464.63	0
2464.92	0
2465.22	0
2465.52	0
2465.81	0
2466.11	0
2466.41	0
2466.7	0
2467	0
2467.29	0
2467.59	0
2467.89	0
2468.18	0
2468.48	0
2468.77	0
2469.07	0
2469.37	0
2469.66	0
2469.96	0
2470.25	0
2470.55	0
2470.84	0
2471.14	0
2471.44	0
2471.73	0
2472.03	0
2472.32	0
2472.62	0
2472.91	0
2473.21	0
2473.51	0
2473.8	0
2474.1	0
2474.39	0
2474.69	0
2474.98	0
2475.28	0
2475.57	0
2475.87	0
2476.17	0
2476.46	0
2476.76	0
2477.05	0
2477.35	0
2477.64	0
2477.94	0
2478.23	0
2478.53	0
2478.82	0
2479.12	0
2479.41	0
2479.71	0
2480	0
2480.3	0
2480.59	0
2480.89	0
2481.18	0
2481.48	0
2481.77	0
2482.07	0
2482.36	0
2482.66	0
2482.95	0
2483.25	0
2483.54	0
2483.84	0
2484.13	0
2484.43	0
2484.72	0
2485.02	0
2485.31	0
2485.6	0
2485.9	0
2486.19	0
2486.49	0
2486.78	0
2487.08	0
2487.37	0
2487.67	0
2487.96	0
2488.26	0
2488.55	0
2488.84	0
2489.14	0
2489.43	0
2489.73	0
2490.02	0
2490.32	0
2490.61	0
2490.9	0
2491.2	0
2491.49	0
2491.79	0
2492.08	0
2492.37	0
2492.67	0
2492.96	0
2493.26	0
2493.55	0
2493.84	0
2494.14	0
2494.43	0
2494.73	0
2495.02	0
2495.31	0
2495.61	0
2495.9	0
2496.2	0
2496.49	0
2496.78	0
2497.08	0
2497.37	0
2497.66	0
2497.96	0
2498.25	0
2498.54	0
2498.84	0
2499.13	0
2499.43	0
2499.72	0
2500.01	0
2500.31	0
2500.6	0
2500.89	0
2501.19	0
2501.48	0
2501.77	0
2502.07	0
2502.36	0
2502.65	0
2502.95	0
2503.24	0
2503.53	0
2503.82	0
2504.12	0
2504.41	0
2504.7	0
2505	0
2505.29	0
2505.58	0
2505.88	0
2506.17	0
2506.46	0
2506.76	0
2507.05	0
2507.34	0
2507.63	0
2507.93	0
2508.22	0
2508.51	0
2508.8	0
2509.1	0
2509.39	0
2509.68	0
2509.98	0
2510.27	0
2510.56	0
2510.85	0
2511.15	0
2511.44	0
2511.73	0
2512.02	0
2512.32	0
2512.61	0
2512.9	0
2513.19	0
2513.49	0
2513.78	0
2514.07	0
2514.36	0
2514.65	0
2514.95	0
2515.24	0
2515.53	0
2515.82	0
2516.12	0
2516.41	0
2516.7	0
2516.99	0
2517.28	0
2517.58	0
2517.87	0
2518.16	0
2518.45	0
2518.74	0
2519.04	0
2519.33	0
2519.62	0
2519.91	0
2520.2	0
2520.5	0
2520.79	0
2521.08	0
2521.37	0
2521.66	0
2521.95	0
2522.25	0
2522.54	0
2522.83	0
2523.12	0
2523.41	0
2523.7	0
2523.99	0
2524.29	0
2524.58	0
2524.87	0
2525.16	0
2525.45	0
2525.74	0
2526.03	0
2526.33	0
2526.62	0
2526.91	0
2527.2	0
2527.49	0
2527.78	0
2528.07	0
2528.36	0
2528.66	0
2528.95	0
2529.24	0
2529.53	0
2529.82	0
2530.11	0
2530.4	0
2530.69	0
2530.98	0
2531.27	0
2531.57	0
2531.86	0
2532.15	0
2532.44	0
2532.73	0
2533.02	0
2533.31	0
2533.6	0
2533.89	0
2534.18	0
2534.47	0
2534.76	0
2535.05	0
2535.35	0
2535.64	0
2535.93	0
2536.22	0
2536.51	0
2536.8	0
2537.09	0
2537.38	0
2537.67	0
2537.96	0
2538.25	0
2538.54	0
2538.83	0
2539.12	0
2539.41	0
2539.7	0
2539.99	0
2540.28	0
2540.57	0
2540.86	0
2541.15	0
2541.44	0
2541.73	0
2542.02	0
2542.31	0
2542.6	0
2542.89	0
2543.18	0
2543.47	0
2543.76	0
2544.05	0
2544.34	0
2544.63	0
2544.92	0
2545.21	0
2545.5	0
2545.79	0
2546.08	0
2546.37	0
2546.66	0
2546.95	0
2547.24	0
2547.53	0
2547.82	0
2548.11	0
2548.4	0
2548.69	0
2548.98	0
2549.27	0
2549.55	0
2549.84	0
2550.13	0
2550.42	0
2550.71	0
2551	0
2551.29	0
2551.58	0
2551.87	0
2552.16	0
2552.45	0
2552.74	0
2553.03	0
2553.31	0
2553.6	0
2553.89	0
2554.18	0
2554.47	0
2554.76	0
2555.05	0
2555.34	0
2555.63	0
2555.92	0
2556.2	0
2556.49	0
2556.78	0
2557.07	0
2557.36	0
2557.65	0
2557.94	0
2558.23	0
2558.51	0
2558.8	0
2559.09	0
2559.38	0
2559.67	0
2559.96	0
2560.25	0
2560.53	0
2560.82	0
2561.11	0
2561.4	0
2561.69	0
2561.98	0
2562.27	0
2562.55	0
2562.84	0
2563.13	0
2563.42	0
2563.71	0
2564	0
2564.28	0
2564.57	0
2564.86	0
2565.15	0
2565.44	0
2565.72	0
2566.01	0
2566.3	0
2566.59	0
2566.88	0
2567.16	0
2567.45	0
2567.74	0
2568.03	0
2568.32	0
2568.6	0
2568.89	0
2569.18	0
2569.47	0
2569.75	0

