Source: Spectrum Viewer

Chart: Pulse Spectrum

Series: 
Wavelength (nm)	S (a.u.)
1179.9	0
1180.29	0
1180.68	0
1181.06	0
1181.45	0
1181.83	0
1182.22	0
1182.6	0
1182.99	0
1183.38	0
1183.76	0
1184.15	0
1184.53	0
1184.92	0
1185.3	0
1185.69	0
1186.07	0
1186.46	0
1186.85	0
1187.23	0
1187.62	0
1188	0
1188.39	0
1188.77	0
1189.16	0
1189.54	0
1189.93	0
1190.31	0
1190.7	0
1191.08	0
1191.47	0
1191.85	0
1192.24	0
1192.62	0
1193.01	0
1193.39	0
1193.78	0
1194.16	0
1194.55	0
1194.93	0
1195.32	0
1195.7	0
1196.09	0
1196.47	0
1196.86	0
1197.24	0
1197.63	0
1198.01	0
1198.4	0
1198.78	0
1199.16	0
1199.55	0
1199.93	0
1200.32	0
1200.7	0
1201.09	0
1201.47	0
1201.86	0
1202.24	0
1202.63	0
1203.01	0
1203.39	0
1203.78	0
1204.16	0
1204.55	0
1204.93	0
1205.32	0
1205.7	0
1206.08	0
1206.47	0
1206.85	0
1207.24	0
1207.62	0
1208	0
1208.39	0
1208.77	0
1209.16	0
1209.54	0
1209.92	0
1210.31	0
1210.69	0
1211.08	0
1211.46	0
1211.84	0
1212.23	0
1212.61	0
1213	0
1213.38	0
1213.76	0
1214.15	0
1214.53	0
1214.91	0
1215.3	0
1215.68	0
1216.06	0
1216.45	0
1216.83	0
1217.22	0
1217.6	0
1217.98	0
1218.37	0
1218.75	0
1219.13	0
1219.52	0
1219.9	0
1220.28	0
1220.67	0
1221.05	0
1221.43	0
1221.82	0
1222.2	0
1222.58	0
1222.97	0
1223.35	0
1223.73	0
1224.11	0
1224.5	0
1224.88	0
1225.26	0
1225.65	0
1226.03	0
1226.41	0
1226.8	0
1227.18	0
1227.56	0
1227.94	0
1228.33	0
1228.71	0
1229.09	0
1229.47	0
1229.86	0
1230.24	0
1230.62	0
1231.01	0
1231.39	0
1231.77	0
1232.15	0
1232.54	0
1232.92	0
1233.3	0
1233.68	0
1234.07	0
1234.45	0
1234.83	0
1235.21	0
1235.6	0
1235.98	0
1236.36	0
1236.74	0
1237.12	0
1237.51	0
1237.89	0
1238.27	0
1238.65	0
1239.04	0
1239.42	0
1239.8	0
1240.18	0
1240.56	0
1240.95	0
1241.33	0
1241.71	0
1242.09	0
1242.47	0
1242.86	0
1243.24	0
1243.62	0
1244	0
1244.38	0
1244.77	0
1245.15	0
1245.53	0
1245.91	0
1246.29	0
1246.67	0
1247.06	0
1247.44	0
1247.82	0
1248.2	0
1248.58	0
1248.96	0
1249.34	0
1249.73	0
1250.11	0
1250.49	0
1250.87	0
1251.25	0
1251.63	0
1252.01	0
1252.4	0
1252.78	0
1253.16	0
1253.54	0
1253.92	0
1254.3	0
1254.68	0
1255.06	0
1255.45	0
1255.83	0
1256.21	0
1256.59	0
1256.97	0
1257.35	0
1257.73	0
1258.11	0
1258.49	0
1258.87	0
1259.26	0
1259.64	0
1260.02	0
1260.4	0
1260.78	0
1261.16	0
1261.54	0
1261.92	0
1262.3	0
1262.68	0
1263.06	0
1263.44	0
1263.82	0
1264.21	0
1264.59	0
1264.97	0
1265.35	0
1265.73	0
1266.11	0
1266.49	0
1266.87	0
1267.25	0
1267.63	0
1268.01	0
1268.39	0
1268.77	0
1269.15	0
1269.53	0
1269.91	0
1270.29	0
1270.67	0
1271.05	0
1271.43	0
1271.81	0
1272.19	0
1272.57	0
1272.95	0
1273.33	0
1273.71	0
1274.09	0
1274.47	0
1274.85	0
1275.23	0
1275.61	0
1275.99	0
1276.37	0
1276.75	0
1277.13	0
1277.51	0
1277.89	0
1278.27	0
1278.65	0
1279.03	0
1279.41	0
1279.79	0
1280.17	0
1280.55	0
1280.93	0
1281.31	0
1281.69	0
1282.07	0
1282.45	0
1282.82	0
1283.2	0
1283.58	0
1283.96	0
1284.34	0
1284.72	0
1285.1	0
1285.48	0
1285.86	0
1286.24	0
1286.62	0
1287	0
1287.38	0
1287.75	0
1288.13	0
1288.51	0
1288.89	0
1289.27	0
1289.65	0
1290.03	0
1290.41	0
1290.79	0
1291.17	0
1291.54	0
1291.92	0
1292.3	0
1292.68	0
1293.06	0
1293.44	0
1293.82	0
1294.2	0
1294.57	0
1294.95	0
1295.33	0
1295.71	0
1296.09	0
1296.47	0
1296.85	0
1297.22	0
1297.6	0
1297.98	0
1298.36	0
1298.74	0
1299.12	0
1299.5	0
1299.87	0
1300.25	0
1300.63	0
1301.01	0
1301.39	0
1301.77	0
1302.14	0
1302.52	0
1302.9	0
1303.28	0
1303.66	0
1304.03	0
1304.41	0
1304.79	0
1305.17	0
1305.55	0
1305.92	0
1306.3	0
1306.68	0
1307.06	0
1307.44	0
1307.81	0
1308.19	0
1308.57	0
1308.95	0
1309.32	0
1309.7	0
1310.08	0
1310.46	0
1310.84	0
1311.21	0
1311.59	0
1311.97	0
1312.35	0
1312.72	0
1313.1	0
1313.48	0
1313.86	0
1314.23	0
1314.61	0
1314.99	0
1315.37	0
1315.74	0
1316.12	0
1316.5	0
1316.87	0
1317.25	0
1317.63	0
1318.01	0
1318.38	0
1318.76	0
1319.14	0
1319.52	0
1319.89	0
1320.27	0
1320.65	0
1321.02	0
1321.4	0
1321.78	0
1322.15	0
1322.53	0
1322.91	0
1323.29	0
1323.66	0
1324.04	0
1324.42	0
1324.79	0
1325.17	0
1325.55	0
1325.92	0
1326.3	0
1326.68	0
1327.05	0
1327.43	0
1327.81	0
1328.18	0
1328.56	0
1328.94	0
1329.31	0
1329.69	0
1330.06	0
1330.44	0
1330.82	0
1331.19	0
1331.57	0
1331.95	0
1332.32	0
1332.7	0
1333.08	0
1333.45	0
1333.83	0
1334.2	0
1334.58	0
1334.96	0
1335.33	0
1335.71	0
1336.08	0
1336.46	0
1336.84	0
1337.21	0
1337.59	0
1337.96	0
1338.34	0
1338.72	0
1339.09	0
1339.47	0
1339.84	0
1340.22	0
1340.6	0
1340.97	0
1341.35	0
1341.72	0
1342.1	0
1342.47	0
1342.85	0
1343.23	0
1343.6	0
1343.98	0
1344.35	0
1344.73	0
1345.1	0
1345.48	0
1345.85	0
1346.23	0
1346.61	0
1346.98	0
1347.36	0
1347.73	0
1348.11	0
1348.48	0
1348.86	0
1349.23	0
1349.61	0
1349.98	0
1350.36	0
1350.73	0
1351.11	0
1351.48	0
1351.86	0
1352.23	0
1352.61	0
1352.98	0
1353.36	0
1353.73	0
1354.11	0
1354.48	0
1354.86	0
1355.23	0
1355.61	0
1355.98	0
1356.36	0
1356.73	0
1357.11	0
1357.48	0
1357.86	0
1358.23	0
1358.61	0
1358.98	0
1359.35	0
1359.73	0
1360.1	0
1360.48	0
1360.85	0
1361.23	0
1361.6	0
1361.98	0
1362.35	0
1362.72	0
1363.1	0
1363.47	0
1363.85	0
1364.22	0
1364.6	0
1364.97	0
1365.34	0
1365.72	0
1366.09	0
1366.47	0
1366.84	0
1367.22	0
1367.59	0
1367.96	0
1368.34	0
1368.71	0
1369.09	0
1369.46	0
1369.83	46
1370.21	41
1370.58	47
1370.96	47
1371.33	46
1371.7	47
1372.08	45
1372.45	45
1372.82	46
1373.2	44
1373.57	47
1373.95	47
1374.32	45
1374.69	46
1375.07	47
1375.44	45
1375.81	45
1376.19	46
1376.56	47
1376.93	47
1377.31	45
1377.68	46
1378.05	45
1378.43	47
1378.8	46
1379.17	46
1379.55	46
1379.92	46
1380.29	46
1380.67	46
1381.04	46
1381.41	48
1381.79	47
1382.16	46
1382.53	45
1382.91	48
1383.28	47
1383.65	42
1384.03	47
1384.4	46
1384.77	48
1385.14	46
1385.52	46
1385.89	47
1386.26	47
1386.64	47
1387.01	45
1387.38	47
1387.75	45
1388.13	47
1388.5	47
1388.87	46
1389.25	46
1389.62	47
1389.99	47
1390.36	45
1390.74	46
1391.11	46
1391.48	46
1391.85	46
1392.23	46
1392.6	46
1392.97	48
1393.34	46
1393.72	47
1394.09	47
1394.46	47
1394.83	48
1395.21	47
1395.58	47
1395.95	47
1396.32	46
1396.69	47
1397.07	46
1397.44	47
1397.81	47
1398.18	47
1398.55	46
1398.93	48
1399.3	49
1399.67	47
1400.04	48
1400.41	47
1400.79	48
1401.16	47
1401.53	47
1401.9	47
1402.27	47
1402.65	48
1403.02	48
1403.39	45
1403.76	49
1404.13	47
1404.51	44
1404.88	46
1405.25	47
1405.62	47
1405.99	47
1406.36	48
1406.74	48
1407.11	47
1407.48	47
1407.85	47
1408.22	47
1408.59	42
1408.96	46
1409.34	47
1409.71	49
1410.08	48
1410.45	49
1410.82	46
1411.19	47
1411.56	47
1411.93	48
1412.31	47
1412.68	48
1413.05	48
1413.42	47
1413.79	47
1414.16	49
1414.53	47
1414.9	47
1415.27	48
1415.65	48
1416.02	47
1416.39	49
1416.76	47
1417.13	46
1417.5	48
1417.87	49
1418.24	48
1418.61	47
1418.98	48
1419.35	48
1419.73	48
1420.1	46
1420.47	48
1420.84	49
1421.21	50
1421.58	47
1421.95	49
1422.32	48
1422.69	47
1423.06	47
1423.43	49
1423.8	48
1424.17	48
1424.54	48
1424.91	48
1425.28	49
1425.65	48
1426.02	46
1426.39	49
1426.76	49
1427.14	48
1427.51	46
1427.88	49
1428.25	48
1428.62	48
1428.99	49
1429.36	49
1429.73	48
1430.1	49
1430.47	48
1430.84	49
1431.21	48
1431.58	49
1431.95	49
1432.32	51
1432.69	49
1433.06	50
1433.43	48
1433.8	49
1434.17	49
1434.54	49
1434.91	49
1435.28	48
1435.64	50
1436.01	49
1436.38	49
1436.75	46
1437.12	50
1437.49	50
1437.86	49
1438.23	49
1438.6	48
1438.97	49
1439.34	49
1439.71	48
1440.08	49
1440.45	50
1440.82	48
1441.19	48
1441.56	46
1441.93	50
1442.3	50
1442.67	50
1443.03	48
1443.4	42
1443.77	50
1444.14	48
1444.51	50
1444.88	50
1445.25	48
1445.62	49
1445.99	48
1446.36	49
1446.73	49
1447.09	49
1447.46	49
1447.83	49
1448.2	50
1448.57	48
1448.94	49
1449.31	48
1449.68	50
1450.05	47
1450.41	49
1450.78	50
1451.15	49
1451.52	47
1451.89	49
1452.26	50
1452.63	51
1453	49
1453.36	50
1453.73	51
1454.1	48
1454.47	50
1454.84	48
1455.21	49
1455.57	51
1455.94	50
1456.31	49
1456.68	50
1457.05	51
1457.42	51
1457.78	51
1458.15	51
1458.52	49
1458.89	51
1459.26	51
1459.63	50
1459.99	52
1460.36	51
1460.73	50
1461.1	49
1461.47	51
1461.83	51
1462.2	52
1462.57	52
1462.94	50
1463.31	51
1463.67	52
1464.04	51
1464.41	51
1464.78	51
1465.15	51
1465.51	48
1465.88	52
1466.25	51
1466.62	52
1466.98	52
1467.35	51
1467.72	53
1468.09	52
1468.46	51
1468.82	52
1469.19	51
1469.56	51
1469.93	52
1470.29	53
1470.66	52
1471.03	51
1471.4	53
1471.76	52
1472.13	51
1472.5	52
1472.86	52
1473.23	53
1473.6	52
1473.97	52
1474.33	52
1474.7	54
1475.07	53
1475.44	53
1475.8	52
1476.17	54
1476.54	52
1476.9	54
1477.27	53
1477.64	53
1478	53
1478.37	52
1478.74	52
1479.11	54
1479.47	53
1479.84	53
1480.21	54
1480.57	53
1480.94	54
1481.31	54
1481.67	55
1482.04	53
1482.41	54
1482.77	53
1483.14	53
1483.51	54
1483.87	54
1484.24	54
1484.61	53
1484.97	54
1485.34	53
1485.71	53
1486.07	55
1486.44	48
1486.81	53
1487.17	53
1487.54	53
1487.9	54
1488.27	53
1488.64	55
1489	54
1489.37	53
1489.74	54
1490.1	54
1490.47	54
1490.83	54
1491.2	55
1491.57	54
1491.93	54
1492.3	55
1492.66	55
1493.03	56
1493.4	55
1493.76	56
1494.13	56
1494.49	54
1494.86	55
1495.23	56
1495.59	56
1495.96	56
1496.32	56
1496.69	49
1497.06	56
1497.42	57
1497.79	56
1498.15	53
1498.52	59
1498.88	56
1499.25	57
1499.62	56
1499.98	58
1500.35	55
1500.71	57
1501.08	57
1501.44	56
1501.81	57
1502.17	57
1502.54	56
1502.9	57
1503.27	58
1503.64	59
1504	56
1504.37	58
1504.73	58
1505.1	57
1505.46	59
1505.83	58
1506.19	60
1506.56	57
1506.92	60
1507.29	59
1507.65	57
1508.02	59
1508.38	57
1508.75	59
1509.11	57
1509.48	59
1509.84	61
1510.21	58
1510.57	60
1510.94	60
1511.3	60
1511.67	59
1512.03	60
1512.4	60
1512.76	60
1513.13	60
1513.49	61
1513.85	54
1514.22	59
1514.58	60
1514.95	60
1515.31	60
1515.68	61
1516.04	60
1516.41	61
1516.77	62
1517.14	61
1517.5	60
1517.86	61
1518.23	62
1518.59	62
1518.96	61
1519.32	62
1519.69	62
1520.05	62
1520.41	62
1520.78	63
1521.14	63
1521.51	63
1521.87	62
1522.24	64
1522.6	63
1522.96	64
1523.33	62
1523.69	62
1524.06	64
1524.42	65
1524.78	64
1525.15	65
1525.51	65
1525.88	65
1526.24	67
1526.6	67
1526.97	67
1527.33	67
1527.69	66
1528.06	67
1528.42	66
1528.79	69
1529.15	67
1529.51	67
1529.88	62
1530.24	65
1530.6	67
1530.97	68
1531.33	68
1531.69	68
1532.06	66
1532.42	68
1532.78	69
1533.15	70
1533.51	69
1533.87	70
1534.24	69
1534.6	71
1534.96	72
1535.33	71
1535.69	70
1536.05	69
1536.42	72
1536.78	70
1537.14	71
1537.51	75
1537.87	73
1538.23	71
1538.6	72
1538.96	73
1539.32	74
1539.68	74
1540.05	73
1540.41	73
1540.77	72
1541.14	73
1541.5	72
1541.86	74
1542.23	73
1542.59	76
1542.95	75
1543.31	73
1543.68	76
1544.04	74
1544.4	74
1544.76	73
1545.13	75
1545.49	75
1545.85	73
1546.21	74
1546.58	76
1546.94	74
1547.3	73
1547.66	74
1548.03	72
1548.39	71
1548.75	72
1549.11	72
1549.48	70
1549.84	74
1550.2	72
1550.56	70
1550.93	71
1551.29	71
1551.65	72
1552.01	73
1552.37	73
1552.74	70
1553.1	72
1553.46	73
1553.82	74
1554.18	72
1554.55	71
1554.91	71
1555.27	73
1555.63	74
1555.99	73
1556.36	72
1556.72	74
1557.08	73
1557.44	63
1557.8	73
1558.17	74
1558.53	71
1558.89	75
1559.25	76
1559.61	75
1559.97	74
1560.34	75
1560.7	73
1561.06	76
1561.42	76
1561.78	76
1562.14	77
1562.5	74
1562.87	73
1563.23	75
1563.59	77
1563.95	75
1564.31	74
1564.67	77
1565.03	74
1565.4	75
1565.76	76
1566.12	75
1566.48	78
1566.84	78
1567.2	78
1567.56	78
1567.92	79
1568.29	80
1568.65	79
1569.01	81
1569.37	80
1569.73	79
1570.09	80
1570.45	85
1570.81	82
1571.17	82
1571.53	83
1571.89	84
1572.26	86
1572.62	87
1572.98	84
1573.34	82
1573.7	83
1574.06	85
1574.42	84
1574.78	84
1575.14	83
1575.5	84
1575.86	84
1576.22	84
1576.58	77
1576.94	84
1577.3	84
1577.67	84
1578.03	82
1578.39	86
1578.75	83
1579.11	81
1579.47	82
1579.83	81
1580.19	83
1580.55	85
1580.91	84
1581.27	81
1581.63	80
1581.99	81
1582.35	83
1582.71	84
1583.07	81
1583.43	80
1583.79	81
1584.15	82
1584.51	82
1584.87	80
1585.23	80
1585.59	80
1585.95	80
1586.31	78
1586.67	80
1587.03	80
1587.39	78
1587.75	77
1588.11	77
1588.47	80
1588.83	77
1589.19	77
1589.55	74
1589.91	75
1590.27	77
1590.63	77
1590.99	78
1591.35	76
1591.71	77
1592.07	77
1592.42	79
1592.78	79
1593.14	79
1593.5	77
1593.86	76
1594.22	79
1594.58	78
1594.94	79
1595.3	78
1595.66	75
1596.02	75
1596.38	74
1596.74	75
1597.1	76
1597.46	76
1597.81	76
1598.17	77
1598.53	77
1598.89	76
1599.25	77
1599.61	72
1599.97	73
1600.33	74
1600.69	75
1601.05	77
1601.4	76
1601.76	75
1602.12	76
1602.48	75
1602.84	76
1603.2	78
1603.56	77
1603.92	77
1604.28	79
1604.63	79
1604.99	80
1605.35	80
1605.71	79
1606.07	80
1606.43	81
1606.79	82
1607.14	82
1607.5	83
1607.86	82
1608.22	82
1608.58	83
1608.94	83
1609.29	84
1609.65	83
1610.01	83
1610.37	84
1610.73	85
1611.09	86
1611.44	84
1611.8	82
1612.16	83
1612.52	82
1612.88	85
1613.24	82
1613.59	86
1613.95	82
1614.31	84
1614.67	87
1615.03	85
1615.38	88
1615.74	86
1616.1	86
1616.46	89
1616.82	89
1617.17	91
1617.53	91
1617.89	88
1618.25	91
1618.6	92
1618.96	94
1619.32	95
1619.68	96
1620.04	94
1620.39	96
1620.75	95
1621.11	97
1621.47	95
1621.82	93
1622.18	97
1622.54	98
1622.9	97
1623.25	93
1623.61	98
1623.97	90
1624.33	101
1624.68	98
1625.04	104
1625.4	104
1625.75	101
1626.11	101
1626.47	98
1626.83	104
1627.18	104
1627.54	105
1627.9	103
1628.26	101
1628.61	102
1628.97	106
1629.33	109
1629.68	106
1630.04	103
1630.4	105
1630.75	107
1631.11	107
1631.47	110
1631.83	110
1632.18	104
1632.54	105
1632.9	103
1633.25	107
1633.61	105
1633.97	103
1634.32	106
1634.68	105
1635.04	111
1635.39	106
1635.75	107
1636.11	105
1636.46	104
1636.82	107
1637.18	109
1637.53	110
1637.89	107
1638.25	101
1638.6	105
1638.96	104
1639.31	106
1639.67	104
1640.03	103
1640.38	104
1640.74	105
1641.1	106
1641.45	104
1641.81	107
1642.16	103
1642.52	102
1642.88	100
1643.23	101
1643.59	100
1643.95	96
1644.3	100
1644.66	96
1645.01	99
1645.37	96
1645.73	96
1646.08	95
1646.44	95
1646.79	93
1647.15	93
1647.51	91
1647.86	89
1648.22	91
1648.57	91
1648.93	90
1649.28	85
1649.64	88
1650	87
1650.35	87
1650.71	86
1651.06	82
1651.42	85
1651.77	82
1652.13	84
1652.48	80
1652.84	81
1653.2	80
1653.55	77
1653.91	81
1654.26	77
1654.62	78
1654.97	79
1655.33	78
1655.68	75
1656.04	75
1656.39	75
1656.75	75
1657.1	74
1657.46	73
1657.81	73
1658.17	72
1658.52	73
1658.88	69
1659.23	72
1659.59	73
1659.94	72
1660.3	70
1660.65	71
1661.01	72
1661.36	71
1661.72	72
1662.07	69
1662.43	74
1662.78	72
1663.14	71
1663.49	72
1663.85	74
1664.2	75
1664.56	73
1664.91	75
1665.27	74
1665.62	67
1665.98	75
1666.33	75
1666.69	76
1667.04	80
1667.39	80
1667.75	78
1668.1	81
1668.46	82
1668.81	83
1669.17	86
1669.52	86
1669.88	88
1670.23	86
1670.58	89
1670.94	93
1671.29	92
1671.65	98
1672	98
1672.36	97
1672.71	100
1673.06	100
1673.42	105
1673.77	102
1674.13	104
1674.48	109
1674.83	109
1675.19	112
1675.54	115
1675.9	116
1676.25	122
1676.6	122
1676.96	127
1677.31	125
1677.67	128
1678.02	133
1678.37	130
1678.73	136
1679.08	136
1679.43	134
1679.79	137
1680.14	141
1680.5	146
1680.85	145
1681.2	143
1681.56	151
1681.91	155
1682.26	155
1682.62	159
1682.97	161
1683.32	157
1683.68	163
1684.03	164
1684.38	175
1684.74	174
1685.09	173
1685.44	182
1685.8	181
1686.15	189
1686.5	191
1686.86	188
1687.21	192
1687.56	190
1687.92	198
1688.27	203
1688.62	200
1688.98	212
1689.33	209
1689.68	217
1690.03	221
1690.39	226
1690.74	229
1691.09	225
1691.45	229
1691.8	230
1692.15	241
1692.5	247
1692.86	242
1693.21	242
1693.56	238
1693.92	250
1694.27	254
1694.62	253
1694.97	253
1695.33	246
1695.68	257
1696.03	265
1696.38	270
1696.74	270
1697.09	253
1697.44	255
1697.79	256
1698.15	256
1698.5	266
1698.85	265
1699.2	255
1699.56	266
1699.91	253
1700.26	275
1700.61	266
1700.97	272
1701.32	259
1701.67	256
1702.02	264
1702.37	270
1702.73	277
1703.08	264
1703.43	267
1703.78	274
1704.13	278
1704.49	277
1704.84	283
1705.19	281
1705.54	271
1705.89	269
1706.25	282
1706.6	293
1706.95	283
1707.3	283
1707.65	293
1708.01	290
1708.36	296
1708.71	291
1709.06	296
1709.41	284
1709.76	289
1710.12	285
1710.47	292
1710.82	290
1711.17	286
1711.52	272
1711.87	287
1712.23	289
1712.58	288
1712.93	290
1713.28	288
1713.63	295
1713.98	302
1714.33	307
1714.69	312
1715.04	313
1715.39	308
1715.74	313
1716.09	308
1716.44	315
1716.79	316
1717.14	316
1717.5	327
1717.85	325
1718.2	329
1718.55	335
1718.9	333
1719.25	342
1719.6	341
1719.95	356
1720.3	350
1720.65	368
1721.01	378
1721.36	366
1721.71	392
1722.06	390
1722.41	389
1722.76	401
1723.11	413
1723.46	434
1723.81	424
1724.16	431
1724.51	445
1724.86	440
1725.21	478
1725.56	464
1725.92	495
1726.27	492
1726.62	506
1726.97	528
1727.32	536
1727.67	562
1728.02	547
1728.37	578
1728.72	588
1729.07	605
1729.42	652
1729.77	621
1730.12	674
1730.47	654
1730.82	691
1731.17	732
1731.52	707
1731.87	770
1732.22	761
1732.57	798
1732.92	847
1733.27	844
1733.62	878
1733.97	857
1734.32	900
1734.67	917
1735.02	945
1735.37	977
1735.72	967
1736.07	1053
1736.42	1046
1736.77	1100
1737.12	1124
1737.47	1104
1737.82	1212
1738.17	1157
1738.52	1212
1738.87	1280
1739.22	1227
1739.57	1353
1739.92	1315
1740.27	1357
1740.62	1403
1740.97	1339
1741.32	1466
1741.67	1464
1742.02	1453
1742.37	1554
1742.72	1496
1743.06	1567
1743.41	1587
1743.76	1519
1744.11	1664
1744.46	1609
1744.81	1564
1745.16	1697
1745.51	1583
1745.86	1638
1746.21	1716
1746.56	1661
1746.91	1741
1747.26	1723
1747.6	1664
1747.95	1812
1748.3	1737
1748.65	1621
1749	1697
1749.35	1677
1749.7	1616
1750.05	1712
1750.4	1708
1750.75	1738
1751.09	1885
1751.44	1706
1751.79	1693
1752.14	2060
1752.49	1786
1752.84	1750
1753.19	1764
1753.54	1709
1753.88	1697
1754.23	1762
1754.58	1647
1754.93	1594
1755.28	1803
1755.63	1574
1755.98	1754
1756.32	1889
1756.67	1560
1757.02	1659
1757.37	1698
1757.72	1567
1758.07	1804
1758.42	1577
1758.76	1554
1759.11	1840
1759.46	1603
1759.81	1652
1760.16	1815
1760.5	1597
1760.85	1777
1761.2	1598
1761.55	1509
1761.9	1859
1762.25	1525
1762.59	1570
1762.94	1795
1763.29	1539
1763.64	1677
1763.99	1793
1764.33	1498
1764.68	1720
1765.03	1479
1765.38	1353
1765.73	1709
1766.07	1540
1766.42	1435
1766.77	1547
1767.12	1544
1767.46	1751
1767.81	1577
1768.16	1420
1768.51	1746
1768.85	1434
1769.2	1320
1769.55	1540
1769.9	1595
1770.25	1643
1770.59	1473
1770.94	1586
1771.29	1938
1771.64	1630
1771.98	1239
1772.33	1557
1772.68	1700
1773.02	1335
1773.37	1283
1773.72	1443
1774.07	1580
1774.41	1583
1774.76	1369
1775.11	1663
1775.46	1994
1775.8	1520
1776.15	1428
1776.5	1625
1776.84	1473
1777.19	1230
1777.54	1281
1777.89	1533
1778.23	1637
1778.58	1452
1778.93	1597
1779.27	2026
1779.62	1802
1779.97	1517
1780.31	1587
1780.66	1799
1781.01	1744
1781.35	1391
1781.7	1657
1782.05	1779
1782.39	1671
1782.74	1816
1783.09	2002
1783.43	2044
1783.78	1983
1784.13	1778
1784.47	2152
1784.82	2332
1785.17	1757
1785.51	1818
1785.86	2036
1786.21	2231
1786.55	2966
1786.9	2544
1787.25	2447
1787.59	3166
1787.94	2622
1788.29	2519
1788.63	2910
1788.98	2326
1789.32	2631
1789.67	2814
1790.02	2793
1790.36	3372
1790.71	2315
1791.06	4034
1791.4	6430
1791.75	3940
1792.09	4066
1792.44	5337
1792.79	5235
1793.13	6191
1793.48	4752
1793.82	4630
1794.17	6209
1794.52	4621
1794.86	4540
1795.21	5677
1795.55	4196
1795.9	4192
1796.24	3687
1796.59	5836
1796.94	10533
1797.28	8021
1797.63	7924
1797.97	6899
1798.32	5551
1798.66	7476
1799.01	7006
1799.36	9245
1799.7	6863
1800.05	5907
1800.39	10195
1800.74	6711
1801.08	6287
1801.43	15918
1801.77	11089
1802.12	9210
1802.46	7756
1802.81	8653
1803.15	10304
1803.5	8237
1803.85	7593
1804.19	8361
1804.54	5304
1804.88	10098
1805.23	12573
1805.57	7089
1805.92	9540
1806.26	16187
1806.61	12674
1806.95	10232
1807.3	8639
1807.64	16809
1807.99	18832
1808.33	12299
1808.68	11495
1809.02	8774
1809.37	10538
1809.71	22911
1810.06	17298
1810.4	13503
1810.75	12585
1811.09	9500
1811.43	12156
1811.78	25572
1812.12	21304
1812.47	19975
1812.81	18815
1813.16	15575
1813.5	15775
1813.85	17988
1814.19	14048
1814.54	13798
1814.88	15707
1815.23	11575
1815.57	11373
1815.91	9939
1816.26	7035
1816.6	8678
1816.95	22325
1817.29	21854
1817.64	14139
1817.98	20076
1818.32	19910
1818.67	24576
1819.01	24297
1819.36	20093
1819.7	18593
1820.05	17954
1820.39	15790
1820.73	16655
1821.08	20896
1821.42	17148
1821.77	15586
1822.11	16389
1822.45	16475
1822.8	11213
1823.14	13065
1823.49	19111
1823.83	12965
1824.17	12719
1824.52	29046
1824.86	27694
1825.2	20937
1825.55	22880
1825.89	17538
1826.24	16010
1826.58	15486
1826.92	12612
1827.27	25083
1827.61	25564
1827.95	19637
1828.3	19246
1828.64	20090
1828.98	15635
1829.33	14064
1829.67	14150
1830.02	10290
1830.36	24817
1830.7	28139
1831.05	20095
1831.39	24421
1831.73	24785
1832.08	20242
1832.42	18394
1832.76	20635
1833.1	15895
1833.45	15700
1833.79	17724
1834.13	14748
1834.48	13741
1834.82	15984
1835.16	16211
1835.51	16231
1835.85	17286
1836.19	13918
1836.54	12916
1836.88	14656
1837.22	10958
1837.56	10356
1837.91	9167
1838.25	10770
1838.59	15888
1838.94	20134
1839.28	20255
1839.62	14907
1839.96	14114
1840.31	12713
1840.65	14897
1840.99	12475
1841.34	9722
1841.68	10819
1842.02	24770
1842.36	24581
1842.71	18659
1843.05	16960
1843.39	14443
1843.73	8472
1844.08	15191
1844.42	27168
1844.76	20465
1845.1	20903
1845.45	21704
1845.79	17797
1846.13	12916
1846.47	14988
1846.81	18424
1847.16	14517
1847.5	14712
1847.84	10352
1848.18	14263
1848.53	22838
1848.87	19938
1849.21	15206
1849.55	15317
1849.89	14368
1850.24	12316
1850.58	14333
1850.92	11692
1851.26	10953
1851.6	12396
1851.95	10978
1852.29	11833
1852.63	11274
1852.97	10810
1853.31	9828
1853.66	10240
1854	8577
1854.34	7569
1854.68	8301
1855.02	8079
1855.36	13752
1855.71	12343
1856.05	9995
1856.39	8786
1856.73	8884
1857.07	8479
1857.41	7334
1857.76	8077
1858.1	8176
1858.44	7494
1858.78	8058
1859.12	6260
1859.46	6632
1859.8	6690
1860.15	5837
1860.49	5675
1860.83	4962
1861.17	8738
1861.51	10060
1861.85	8275
1862.19	5688
1862.53	5387
1862.88	5412
1863.22	6362
1863.56	6551
1863.9	5558
1864.24	4684
1864.58	6338
1864.92	6272
1865.26	4846
1865.6	5157
1865.94	4339
1866.29	4084
1866.63	4024
1866.97	3501
1867.31	3945
1867.65	3585
1867.99	3584
1868.33	5150
1868.67	4003
1869.01	3366
1869.35	3688
1869.69	4751
1870.03	8266
1870.37	5432
1870.72	5273
1871.06	4949
1871.4	4202
1871.74	3112
1872.08	2989
1872.42	3367
1872.76	4517
1873.1	7727
1873.44	4421
1873.78	2951
1874.12	3030
1874.46	2759
1874.8	3190
1875.14	6883
1875.48	6123
1875.82	3489
1876.16	3254
1876.5	4677
1876.84	4292
1877.18	3392
1877.52	2616
1877.86	2387
1878.2	2785
1878.54	2565
1878.88	2549
1879.22	2649
1879.56	2759
1879.9	2717
1880.24	3283
1880.58	2878
1880.92	2846
1881.26	4057
1881.6	3278
1881.94	2507
1882.28	2829
1882.62	3279
1882.96	3675
1883.3	5033
1883.64	4343
1883.98	2516
1884.32	2500
1884.66	2918
1885	2665
1885.34	2646
1885.68	3459
1886.02	3320
1886.36	2952
1886.7	2927
1887.04	3019
1887.38	2721
1887.72	3279
1888.06	3329
1888.39	3518
1888.73	3596
1889.07	4457
1889.41	4557
1889.75	5797
1890.09	4327
1890.43	4633
1890.77	5267
1891.11	3763
1891.45	2735
1891.79	2837
1892.13	2756
1892.47	3452
1892.8	3476
1893.14	3627
1893.48	3671
1893.82	4436
1894.16	4400
1894.5	4554
1894.84	3760
1895.18	3725
1895.52	3971
1895.86	4328
1896.19	4487
1896.53	4411
1896.87	4849
1897.21	4838
1897.55	4766
1897.89	4462
1898.23	5173
1898.57	5158
1898.9	5946
1899.24	4468
1899.58	4335
1899.92	4687
1900.26	5135
1900.6	5081
1900.94	4759
1901.27	5107
1901.61	5210
1901.95	5118
1902.29	5419
1902.63	5399
1902.97	5423
1903.3	5595
1903.64	5748
1903.98	5833
1904.32	5945
1904.66	5808
1905	5437
1905.33	5564
1905.67	5843
1906.01	5861
1906.35	6070
1906.69	5905
1907.02	6395
1907.36	6096
1907.7	5523
1908.04	5789
1908.38	6259
1908.71	6088
1909.05	6165
1909.39	6070
1909.73	6432
1910.07	6205
1910.4	6096
1910.74	5944
1911.08	5901
1911.42	6152
1911.76	6470
1912.09	6253
1912.43	6265
1912.77	6167
1913.11	6294
1913.44	6347
1913.78	6384
1914.12	6457
1914.46	6440
1914.79	6534
1915.13	6388
1915.47	6684
1915.81	6457
1916.14	6263
1916.48	6150
1916.82	6576
1917.16	6399
1917.49	6564
1917.83	6433
1918.17	6574
1918.5	6400
1918.84	6416
1919.18	6426
1919.52	6306
1919.85	6404
1920.19	6389
1920.53	6415
1920.87	6280
1921.2	6430
1921.54	6207
1921.88	6411
1922.21	6081
1922.55	6265
1922.89	6023
1923.22	6143
1923.56	5911
1923.9	5967
1924.23	5866
1924.57	5633
1924.91	5733
1925.25	5692
1925.58	5731
1925.92	5524
1926.26	5744
1926.59	5499
1926.93	5554
1927.27	5317
1927.6	5618
1927.94	5312
1928.28	5366
1928.61	5250
1928.95	5400
1929.29	5099
1929.62	5230
1929.96	5143
1930.29	5189
1930.63	5061
1930.97	5098
1931.3	5128
1931.64	4983
1931.98	5091
1932.31	4935
1932.65	4950
1932.99	4849
1933.32	4957
1933.66	4927
1933.99	4901
1934.33	4810
1934.67	4753
1935	4917
1935.34	4702
1935.67	4782
1936.01	4757
1936.35	4596
1936.68	4566
1937.02	4598
1937.35	4621
1937.69	4354
1938.03	4502
1938.36	4294
1938.7	4342
1939.03	4253
1939.37	4284
1939.7	4148
1940.04	4078
1940.38	4190
1940.71	3991
1941.05	4087
1941.38	4033
1941.72	3980
1942.05	3788
1942.39	3919
1942.73	3757
1943.06	3813
1943.4	3707
1943.73	3660
1944.07	3576
1944.4	3552
1944.74	3621
1945.07	3543
1945.41	3661
1945.74	3447
1946.08	3492
1946.42	3507
1946.75	3656
1947.09	3441
1947.42	3517
1947.76	3445
1948.09	3533
1948.43	3336
1948.76	3512
1949.1	3386
1949.43	3303
1949.77	3238
1950.1	3299
1950.44	3214
1950.77	3230
1951.11	3170
1951.44	3167
1951.78	3077
1952.11	3104
1952.45	3060
1952.78	3132
1953.12	2957
1953.45	3084
1953.79	2975
1954.12	3014
1954.46	2928
1954.79	3026
1955.12	2881
1955.46	2874
1955.79	2891
1956.13	2952
1956.46	2913
1956.8	2867
1957.13	2941
1957.47	2891
1957.8	2955
1958.14	2881
1958.47	3040
1958.8	2852
1959.14	2898
1959.47	2869
1959.81	2873
1960.14	2807
1960.48	2845
1960.81	2816
1961.14	2857
1961.48	2718
1961.81	2829
1962.15	2827
1962.48	2810
1962.82	2719
1963.15	2841
1963.48	2733
1963.82	2718
1964.15	2710
1964.49	2720
1964.82	2662
1965.15	2602
1965.49	2673
1965.82	2600
1966.16	2620
1966.49	2542
1966.82	2652
1967.16	2546
1967.49	2548
1967.83	2492
1968.16	2528
1968.49	2459
1968.83	2412
1969.16	2474
1969.49	2423
1969.83	2395
1970.16	2354
1970.49	2444
1970.83	2361
1971.16	2342
1971.5	2315
1971.83	2395
1972.16	2275
1972.5	2321
1972.83	2316
1973.16	2350
1973.5	2230
1973.83	2229
1974.16	2298
1974.5	2235
1974.83	2166
1975.16	2113
1975.5	2195
1975.83	2121
1976.16	2143
1976.49	2109
1976.83	2096
1977.16	2051
1977.49	2011
1977.83	2036
1978.16	1988
1978.49	1883
1978.83	1888
1979.16	1886
1979.49	1771
1979.83	1781
1980.16	1756
1980.49	1763
1980.82	1610
1981.16	1600
1981.49	1568
1981.82	1609
1982.15	1457
1982.49	1493
1982.82	1441
1983.15	1370
1983.49	1303
1983.82	1350
1984.15	1222
1984.48	1155
1984.82	1111
1985.15	1146
1985.48	1031
1985.81	1026
1986.15	988
1986.48	903
1986.81	805
1987.14	836
1987.48	772
1987.81	739
1988.14	705
1988.47	694
1988.81	621
1989.14	634
1989.47	629
1989.8	625
1990.13	540
1990.47	554
1990.8	542
1991.13	504
1991.46	464
1991.79	500
1992.13	452
1992.46	418
1992.79	399
1993.12	415
1993.45	373
1993.79	342
1994.12	345
1994.45	323
1994.78	300
1995.11	292
1995.45	308
1995.78	272
1996.11	269
1996.44	270
1996.77	281
1997.1	256
1997.44	266
1997.77	242
1998.1	240
1998.43	228
1998.76	246
1999.09	223
1999.43	213
1999.76	210
2000.09	208
2000.42	198
2000.75	203
2001.08	209
2001.41	184
2001.75	205
2002.08	202
2002.41	193
2002.74	191
2003.07	210
2003.4	192
2003.73	199
2004.06	206
2004.4	207
2004.73	196
2005.06	219
2005.39	210
2005.72	209
2006.05	219
2006.38	231
2006.71	219
2007.04	228
2007.37	250
2007.71	239
2008.04	239
2008.37	264
2008.7	260
2009.03	261
2009.36	287
2009.69	295
2010.02	280
2010.35	293
2010.68	331
2011.01	323
2011.34	322
2011.67	341
2012.01	354
2012.34	337
2012.67	360
2013	391
2013.33	377
2013.66	379
2013.99	407
2014.32	427
2014.65	407
2014.98	434
2015.31	438
2015.64	452
2015.97	427
2016.3	471
2016.63	474
2016.96	483
2017.29	467
2017.62	511
2017.95	491
2018.28	491
2018.61	512
2018.94	534
2019.27	531
2019.6	507
2019.93	556
2020.26	535
2020.59	546
2020.92	516
2021.25	571
2021.58	555
2021.91	535
2022.24	533
2022.57	563
2022.9	583
2023.23	531
2023.56	550
2023.89	551
2024.22	567
2024.55	528
2024.88	564
2025.21	554
2025.54	541
2025.87	531
2026.2	558
2026.53	553
2026.86	520
2027.19	532
2027.52	545
2027.85	549
2028.18	505
2028.51	530
2028.84	543
2029.16	528
2029.49	509
2029.82	512
2030.15	543
2030.48	508
2030.81	507
2031.14	497
2031.47	528
2031.8	515
2032.13	488
2032.46	512
2032.79	511
2033.12	516
2033.44	493
2033.77	495
2034.1	523
2034.43	506
2034.76	504
2035.09	499
2035.42	514
2035.75	518
2036.08	490
2036.41	505
2036.73	504
2037.06	506
2037.39	483
2037.72	474
2038.05	506
2038.38	496
2038.71	481
2039.04	460
2039.36	474
2039.69	485
2040.02	454
2040.35	450
2040.68	451
2041.01	459
2041.34	449
2041.66	422
2041.99	439
2042.32	435
2042.65	426
2042.98	401
2043.31	412
2043.63	413
2043.96	397
2044.29	384
2044.62	375
2044.95	386
2045.28	370
2045.6	360
2045.93	358
2046.26	352
2046.59	344
2046.92	323
2047.24	336
2047.57	320
2047.9	311
2048.23	297
2048.56	307
2048.88	291
2049.21	285
2049.54	281
2049.87	281
2050.2	264
2050.52	258
2050.85	270
2051.18	259
2051.51	253
2051.83	244
2052.16	255
2052.49	242
2052.82	236
2053.15	234
2053.47	240
2053.8	221
2054.13	220
2054.46	223
2054.78	219
2055.11	213
2055.44	208
2055.77	213
2056.09	201
2056.42	203
2056.75	199
2057.08	207
2057.4	195
2057.73	192
2058.06	192
2058.38	194
2058.71	189
2059.04	182
2059.37	187
2059.69	183
2060.02	183
2060.35	179
2060.67	187
2061	181
2061.33	172
2061.66	179
2061.98	181
2062.31	185
2062.64	176
2062.96	179
2063.29	180
2063.62	182
2063.94	171
2064.27	181
2064.6	179
2064.92	178
2065.25	172
2065.58	180
2065.91	176
2066.23	178
2066.56	177
2066.89	177
2067.21	173
2067.54	174
2067.87	175
2068.19	173
2068.52	172
2068.84	173
2069.17	171
2069.5	170
2069.82	175
2070.15	172
2070.48	167
2070.8	168
2071.13	173
2071.46	168
2071.78	168
2072.11	166
2072.43	168
2072.76	164
2073.09	162
2073.41	164
2073.74	165
2074.07	161
2074.39	159
2074.72	162
2075.04	162
2075.37	159
2075.7	159
2076.02	161
2076.35	158
2076.67	160
2077	159
2077.33	158
2077.65	158
2077.98	157
2078.3	155
2078.63	155
2078.95	154
2079.28	155
2079.61	155
2079.93	152
2080.26	151
2080.58	155
2080.91	154
2081.23	150
2081.56	151
2081.89	152
2082.21	154
2082.54	151
2082.86	148
2083.19	150
2083.51	149
2083.84	145
2084.16	145
2084.49	145
2084.81	144
2085.14	142
2085.46	140
2085.79	139
2086.12	140
2086.44	142
2086.77	139
2087.09	138
2087.42	135
2087.74	136
2088.07	134
2088.39	135
2088.72	130
2089.04	129
2089.37	127
2089.69	129
2090.02	126
2090.34	122
2090.67	120
2090.99	118
2091.32	120
2091.64	105
2091.97	114
2092.29	114
2092.62	113
2092.94	112
2093.26	110
2093.59	109
2093.91	110
2094.24	110
2094.56	102
2094.89	108
2095.21	107
2095.54	108
2095.86	109
2096.19	107
2096.51	106
2096.84	107
2097.16	106
2097.48	106
2097.81	106
2098.13	105
2098.46	103
2098.78	104
2099.11	103
2099.43	105
2099.75	105
2100.08	103
2100.4	104
2100.73	105
2101.05	105
2101.38	105
2101.7	105
2102.02	108
2102.35	108
2102.67	110
2103	110
2103.32	109
2103.64	112
2103.97	114
2104.29	115
2104.62	117
2104.94	115
2105.26	118
2105.59	120
2105.91	119
2106.23	121
2106.56	121
2106.88	123
2107.21	122
2107.53	122
2107.85	119
2108.18	120
2108.5	122
2108.82	122
2109.15	123
2109.47	120
2109.79	122
2110.12	124
2110.44	121
2110.76	122
2111.09	118
2111.41	119
2111.73	120
2112.06	119
2112.38	121
2112.7	114
2113.03	113
2113.35	110
2113.67	113
2114	113
2114.32	111
2114.64	114
2114.97	109
2115.29	107
2115.61	107
2115.94	108
2116.26	106
2116.58	104
2116.91	102
2117.23	105
2117.55	99
2117.87	102
2118.2	101
2118.52	101
2118.84	102
2119.17	102
2119.49	101
2119.81	100
2120.13	102
2120.46	100
2120.78	98
2121.1	99
2121.42	94
2121.75	100
2122.07	100
2122.39	99
2122.72	99
2123.04	99
2123.36	101
2123.68	100
2124.01	99
2124.33	100
2124.65	100
2124.97	102
2125.29	102
2125.62	102
2125.94	102
2126.26	104
2126.58	104
2126.91	102
2127.23	102
2127.55	100
2127.87	105
2128.2	105
2128.52	104
2128.84	107
2129.16	105
2129.48	109
2129.81	104
2130.13	105
2130.45	107
2130.77	107
2131.09	106
2131.42	106
2131.74	106
2132.06	104
2132.38	105
2132.7	103
2133.02	103
2133.35	105
2133.67	104
2133.99	102
2134.31	100
2134.63	102
2134.96	98
2135.28	100
2135.6	99
2135.92	100
2136.24	98
2136.56	97
2136.88	96
2137.21	97
2137.53	96
2137.85	94
2138.17	93
2138.49	92
2138.81	88
2139.13	91
2139.46	90
2139.78	88
2140.1	89
2140.42	87
2140.74	86
2141.06	85
2141.38	87
2141.7	85
2142.03	84
2142.35	82
2142.67	84
2142.99	85
2143.31	85
2143.63	80
2143.95	84
2144.27	81
2144.59	83
2144.91	83
2145.24	81
2145.56	79
2145.88	81
2146.2	80
2146.52	81
2146.84	80
2147.16	80
2147.48	81
2147.8	81
2148.12	81
2148.44	83
2148.76	81
2149.08	81
2149.41	82
2149.73	80
2150.05	78
2150.37	80
2150.69	80
2151.01	81
2151.33	80
2151.65	80
2151.97	79
2152.29	79
2152.61	78
2152.93	78
2153.25	74
2153.57	77
2153.89	77
2154.21	76
2154.53	76
2154.85	74
2155.17	72
2155.49	75
2155.81	77
2156.13	72
2156.45	73
2156.77	74
2157.09	73
2157.41	72
2157.73	72
2158.05	69
2158.37	71
2158.69	69
2159.01	69
2159.33	67
2159.65	70
2159.97	68
2160.29	66
2160.61	68
2160.93	67
2161.25	68
2161.57	68
2161.89	68
2162.21	68
2162.53	65
2162.85	68
2163.17	67
2163.49	63
2163.81	67
2164.13	67
2164.45	67
2164.77	66
2165.08	65
2165.4	67
2165.72	69
2166.04	67
2166.36	66
2166.68	66
2167	66
2167.32	68
2167.64	69
2167.96	68
2168.28	67
2168.6	66
2168.92	67
2169.24	67
2169.55	68
2169.87	67
2170.19	69
2170.51	69
2170.83	69
2171.15	69
2171.47	68
2171.79	67
2172.11	66
2172.43	67
2172.74	68
2173.06	68
2173.38	68
2173.7	67
2174.02	67
2174.34	68
2174.66	67
2174.98	67
2175.29	68
2175.61	66
2175.93	69
2176.25	68
2176.57	66
2176.89	67
2177.21	67
2177.52	66
2177.84	65
2178.16	65
2178.48	66
2178.8	65
2179.12	65
2179.43	66
2179.75	65
2180.07	65
2180.39	58
2180.71	64
2181.03	63
2181.34	64
2181.66	63
2181.98	63
2182.3	62
2182.62	63
2182.93	63
2183.25	63
2183.57	63
2183.89	64
2184.21	64
2184.52	64
2184.84	63
2185.16	64
2185.48	64
2185.8	65
2186.11	65
2186.43	64
2186.75	64
2187.07	65
2187.39	67
2187.7	63
2188.02	61
2188.34	66
2188.66	63
2188.97	64
2189.29	66
2189.61	65
2189.93	66
2190.24	67
2190.56	69
2190.88	67
2191.2	65
2191.51	68
2191.83	67
2192.15	66
2192.47	66
2192.78	66
2193.1	67
2193.42	67
2193.74	67
2194.05	67
2194.37	67
2194.69	69
2195	67
2195.32	66
2195.64	65
2195.96	68
2196.27	68
2196.59	68
2196.91	67
2197.22	65
2197.54	68
2197.86	68
2198.18	68
2198.49	66
2198.81	66
2199.13	68
2199.44	67
2199.76	65
2200.08	67
2200.39	68
2200.71	66
2201.03	66
2201.34	66
2201.66	67
2201.98	66
2202.29	67
2202.61	67
2202.93	64
2203.24	65
2203.56	65
2203.88	64
2204.19	65
2204.51	64
2204.83	66
2205.14	64
2205.46	64
2205.78	65
2206.09	63
2206.41	66
2206.72	66
2207.04	64
2207.36	65
2207.67	65
2207.99	63
2208.31	64
2208.62	64
2208.94	64
2209.25	65
2209.57	64
2209.89	64
2210.2	64
2210.52	63
2210.83	63
2211.15	62
2211.47	63
2211.78	64
2212.1	63
2212.41	63
2212.73	60
2213.05	63
2213.36	62
2213.68	65
2213.99	62
2214.31	62
2214.62	61
2214.94	63
2215.26	63
2215.57	63
2215.89	61
2216.2	62
2216.52	61
2216.83	62
2217.15	61
2217.46	61
2217.78	62
2218.1	61
2218.41	61
2218.73	61
2219.04	59
2219.36	60
2219.67	61
2219.99	61
2220.3	61
2220.62	59
2220.93	59
2221.25	61
2221.56	58
2221.88	60
2222.19	59
2222.51	59
2222.82	58
2223.14	56
2223.45	52
2223.77	59
2224.08	58
2224.4	58
2224.71	58
2225.03	56
2225.34	58
2225.66	58
2225.97	57
2226.29	48
2226.6	56
2226.92	57
2227.23	56
2227.55	56
2227.86	56
2228.18	55
2228.49	56
2228.81	55
2229.12	54
2229.44	55
2229.75	53
2230.07	55
2230.38	55
2230.69	55
2231.01	54
2231.32	54
2231.64	53
2231.95	54
2232.27	52
2232.58	54
2232.9	54
2233.21	54
2233.52	55
2233.84	52
2234.15	52
2234.47	54
2234.78	54
2235.1	53
2235.41	52
2235.72	52
2236.04	52
2236.35	52
2236.67	54
2236.98	53
2237.29	50
2237.61	51
2237.92	53
2238.24	53
2238.55	54
2238.86	51
2239.18	53
2239.49	54
2239.8	52
2240.12	50
2240.43	52
2240.75	52
2241.06	53
2241.37	53
2241.69	51
2242	53
2242.31	53
2242.63	53
2242.94	54
2243.26	52
2243.57	53
2243.88	49
2244.2	52
2244.51	53
2244.82	53
2245.14	52
2245.45	55
2245.76	54
2246.08	54
2246.39	53
2246.7	54
2247.02	53
2247.33	54
2247.64	54
2247.96	54
2248.27	54
2248.58	54
2248.9	55
2249.21	48
2249.52	55
2249.83	53
2250.15	53
2250.46	51
2250.77	53
2251.09	52
2251.4	53
2251.71	53
2252.03	52
2252.34	52
2252.65	52
2252.96	52
2253.28	54
2253.59	52
2253.9	53
2254.21	54
2254.53	53
2254.84	53
2255.15	54
2255.47	50
2255.78	53
2256.09	53
2256.4	54
2256.72	52
2257.03	54
2257.34	52
2257.65	52
2257.97	52
2258.28	52
2258.59	52
2258.9	52
2259.22	53
2259.53	54
2259.84	51
2260.15	51
2260.46	52
2260.78	52
2261.09	52
2261.4	52
2261.71	53
2262.03	52
2262.34	52
2262.65	53
2262.96	52
2263.27	52
2263.59	52
2263.9	53
2264.21	51
2264.52	53
2264.83	50
2265.15	52
2265.46	52
2265.77	51
2266.08	51
2266.39	51
2266.7	51
2267.02	50
2267.33	52
2267.64	52
2267.95	48
2268.26	50
2268.57	50
2268.89	52
2269.2	51
2269.51	52
2269.82	51
2270.13	52
2270.44	52
2270.76	51
2271.07	52
2271.38	50
2271.69	51
2272	48
2272.31	51
2272.62	52
2272.93	51
2273.25	48
2273.56	51
2273.87	51
2274.18	51
2274.49	51
2274.8	49
2275.11	50
2275.42	51
2275.74	53
2276.05	51
2276.36	51
2276.67	52
2276.98	52
2277.29	51
2277.6	51
2277.91	51
2278.22	48
2278.53	49
2278.85	49
2279.16	51
2279.47	48
2279.78	45
2280.09	49
2280.4	49
2280.71	48
2281.02	48
2281.33	49
2281.64	50
2281.95	48
2282.26	48
2282.57	50
2282.88	49
2283.19	46
2283.5	48
2283.82	47
2284.13	48
2284.44	48
2284.75	47
2285.06	47
2285.37	44
2285.68	47
2285.99	47
2286.3	46
2286.61	47
2286.92	46
2287.23	47
2287.54	46
2287.85	46
2288.16	46
2288.47	46
2288.78	46
2289.09	45
2289.4	46
2289.71	46
2290.02	44
2290.33	46
2290.64	46
2290.95	46
2291.26	45
2291.57	42
2291.88	48
2292.19	46
2292.5	44
2292.81	46
2293.12	0
2293.43	0
2293.74	0
2294.05	0
2294.36	0
2294.67	0
2294.98	0
2295.29	0
2295.6	0
2295.91	0
2296.21	0
2296.52	0
2296.83	0
2297.14	0
2297.45	0
2297.76	0
2298.07	0
2298.38	0
2298.69	0
2299	0
2299.31	0
2299.62	0
2299.93	0
2300.24	0
2300.55	0
2300.85	0
2301.16	0
2301.47	0
2301.78	0
2302.09	0
2302.4	0
2302.71	0
2303.02	0
2303.33	0
2303.64	0
2303.94	0
2304.25	0
2304.56	0
2304.87	0
2305.18	0
2305.49	0
2305.8	0
2306.11	0
2306.42	0
2306.72	0
2307.03	0
2307.34	0
2307.65	0
2307.96	0
2308.27	0
2308.58	0
2308.88	0
2309.19	0
2309.5	0
2309.81	0
2310.12	0
2310.43	0
2310.74	0
2311.04	0
2311.35	0
2311.66	0
2311.97	0
2312.28	0
2312.59	0
2312.89	0
2313.2	0
2313.51	0
2313.82	0
2314.13	0
2314.43	0
2314.74	0
2315.05	0
2315.36	0
2315.67	0
2315.97	0
2316.28	0
2316.59	0
2316.9	0
2317.21	0
2317.51	0
2317.82	0
2318.13	0
2318.44	0
2318.75	0
2319.05	0
2319.36	0
2319.67	0
2319.98	0
2320.28	0
2320.59	0
2320.9	0
2321.21	0
2321.51	0
2321.82	0
2322.13	0
2322.44	0
2322.74	0
2323.05	0
2323.36	0
2323.67	0
2323.97	0
2324.28	0
2324.59	0
2324.9	0
2325.2	0
2325.51	0
2325.82	0
2326.13	0
2326.43	0
2326.74	0
2327.05	0
2327.35	0
2327.66	0
2327.97	0
2328.27	0
2328.58	0
2328.89	0
2329.2	0
2329.5	0
2329.81	0
2330.12	0
2330.42	0
2330.73	0
2331.04	0
2331.34	0
2331.65	0
2331.96	0
2332.26	0
2332.57	0
2332.88	0
2333.18	0
2333.49	0
2333.8	0
2334.1	0
2334.41	0
2334.72	0
2335.02	0
2335.33	0
2335.64	0
2335.94	0
2336.25	0
2336.56	0
2336.86	0
2337.17	0
2337.48	0
2337.78	0
2338.09	0
2338.39	0
2338.7	0
2339.01	0
2339.31	0
2339.62	0
2339.93	0
2340.23	0
2340.54	0
2340.84	0
2341.15	0
2341.46	0
2341.76	0
2342.07	0
2342.37	0
2342.68	0
2342.99	0
2343.29	0
2343.6	0
2343.9	0
2344.21	0
2344.51	0
2344.82	0
2345.13	0
2345.43	0
2345.74	0
2346.04	0
2346.35	0
2346.65	0
2346.96	0
2347.27	0
2347.57	0
2347.88	0
2348.18	0
2348.49	0
2348.79	0
2349.1	0
2349.4	0
2349.71	0
2350.01	0
2350.32	0
2350.63	0
2350.93	0
2351.24	0
2351.54	0
2351.85	0
2352.15	0
2352.46	0
2352.76	0
2353.07	0
2353.37	0
2353.68	0
2353.98	0
2354.29	0
2354.59	0
2354.9	0
2355.2	0
2355.51	0
2355.81	0
2356.12	0
2356.42	0
2356.73	0
2357.03	0
2357.34	0
2357.64	0
2357.95	0
2358.25	0
2358.55	0
2358.86	0
2359.16	0
2359.47	0
2359.77	0
2360.08	0
2360.38	0
2360.69	0
2360.99	0
2361.3	0
2361.6	0
2361.9	0
2362.21	0
2362.51	0
2362.82	0
2363.12	0
2363.43	0
2363.73	0
2364.04	0
2364.34	0
2364.64	0
2364.95	0
2365.25	0
2365.56	0
2365.86	0
2366.16	0
2366.47	0
2366.77	0
2367.08	0
2367.38	0
2367.68	0
2367.99	0
2368.29	0
2368.6	0
2368.9	0
2369.2	0
2369.51	0
2369.81	0
2370.12	0
2370.42	0
2370.72	0
2371.03	0
2371.33	0
2371.63	0
2371.94	0
2372.24	0
2372.55	0
2372.85	0
2373.15	0
2373.46	0
2373.76	0
2374.06	0
2374.37	0
2374.67	0
2374.97	0
2375.28	0
2375.58	0
2375.88	0
2376.19	0
2376.49	0
2376.79	0
2377.1	0
2377.4	0
2377.7	0
2378.01	0
2378.31	0
2378.61	0
2378.92	0
2379.22	0
2379.52	0
2379.82	0
2380.13	0
2380.43	0
2380.73	0
2381.04	0
2381.34	0
2381.64	0
2381.95	0
2382.25	0
2382.55	0
2382.85	0
2383.16	0
2383.46	0
2383.76	0
2384.06	0
2384.37	0
2384.67	0
2384.97	0
2385.28	0
2385.58	0
2385.88	0
2386.18	0
2386.49	0
2386.79	0
2387.09	0
2387.39	0
2387.69	0
2388	0
2388.3	0
2388.6	0
2388.9	0
2389.21	0
2389.51	0
2389.81	0
2390.11	0
2390.42	0
2390.72	0
2391.02	0
2391.32	0
2391.62	0
2391.93	0
2392.23	0
2392.53	0
2392.83	0
2393.13	0
2393.44	0
2393.74	0
2394.04	0
2394.34	0
2394.64	0
2394.95	0
2395.25	0
2395.55	0
2395.85	0
2396.15	0
2396.45	0
2396.76	0
2397.06	0
2397.36	0
2397.66	0
2397.96	0
2398.26	0
2398.57	0
2398.87	0
2399.17	0
2399.47	0
2399.77	0
2400.07	0
2400.37	0
2400.68	0
2400.98	0
2401.28	0
2401.58	0
2401.88	0
2402.18	0
2402.48	0
2402.79	0
2403.09	0
2403.39	0
2403.69	0
2403.99	0
2404.29	0
2404.59	0
2404.89	0
2405.19	0
2405.5	0
2405.8	0
2406.1	0
2406.4	0
2406.7	0
2407	0
2407.3	0
2407.6	0
2407.9	0
2408.2	0
2408.5	0
2408.8	0
2409.11	0
2409.41	0
2409.71	0
2410.01	0
2410.31	0
2410.61	0
2410.91	0
2411.21	0
2411.51	0
2411.81	0
2412.11	0
2412.41	0
2412.71	0
2413.01	0
2413.31	0
2413.61	0
2413.91	0
2414.21	0
2414.51	0
2414.81	0
2415.12	0
2415.42	0
2415.72	0
2416.02	0
2416.32	0
2416.62	0
2416.92	0
2417.22	0
2417.52	0
2417.82	0
2418.12	0
2418.42	0
2418.72	0
2419.02	0
2419.32	0
2419.62	0
2419.92	0
2420.22	0
2420.52	0
2420.82	0
2421.12	0
2421.42	0
2421.71	0
2422.01	0
2422.31	0
2422.61	0
2422.91	0
2423.21	0
2423.51	0
2423.81	0
2424.11	0
2424.41	0
2424.71	0
2425.01	0
2425.31	0
2425.61	0
2425.91	0
2426.21	0
2426.51	0
2426.81	0
2427.11	0
2427.41	0
2427.7	0
2428	0
2428.3	0
2428.6	0
2428.9	0
2429.2	0
2429.5	0
2429.8	0
2430.1	0
2430.4	0
2430.7	0
2430.99	0
2431.29	0
2431.59	0
2431.89	0
2432.19	0
2432.49	0
2432.79	0
2433.09	0
2433.39	0
2433.68	0
2433.98	0
2434.28	0
2434.58	0
2434.88	0
2435.18	0
2435.48	0
2435.78	0
2436.07	0
2436.37	0
2436.67	0
2436.97	0
2437.27	0
2437.57	0
2437.86	0
2438.16	0
2438.46	0
2438.76	0
2439.06	0
2439.36	0
2439.66	0
2439.95	0
2440.25	0
2440.55	0
2440.85	0
2441.15	0
2441.44	0
2441.74	0
2442.04	0
2442.34	0
2442.64	0
2442.93	0
2443.23	0
2443.53	0
2443.83	0
2444.13	0
2444.42	0
2444.72	0
2445.02	0
2445.32	0
2445.62	0
2445.91	0
2446.21	0
2446.51	0
2446.81	0
2447.1	0
2447.4	0
2447.7	0
2448	0
2448.3	0
2448.59	0
2448.89	0
2449.19	0
2449.49	0
2449.78	0
2450.08	0
2450.38	0
2450.68	0
2450.97	0
2451.27	0
2451.57	0
2451.87	0
2452.16	0
2452.46	0
2452.76	0
2453.05	0
2453.35	0
2453.65	0
2453.95	0
2454.24	0
2454.54	0
2454.84	0
2455.13	0
2455.43	0
2455.73	0
2456.03	0
2456.32	0
2456.62	0
2456.92	0
2457.21	0
2457.51	0
2457.81	0
2458.1	0
2458.4	0
2458.7	0
2458.99	0
2459.29	0
2459.59	0
2459.88	0
2460.18	0
2460.48	0
2460.77	0
2461.07	0
2461.37	0
2461.66	0
2461.96	0
2462.26	0
2462.55	0
2462.85	0
2463.15	0
2463.44	0
2463.74	0
2464.04	0
2464.33	0
2464.63	0
2464.92	0
2465.22	0
2465.52	0
2465.81	0
2466.11	0
2466.41	0
2466.7	0
2467	0
2467.29	0
2467.59	0
2467.89	0
2468.18	0
2468.48	0
2468.77	0
2469.07	0
2469.37	0
2469.66	0
2469.96	0
2470.25	0
2470.55	0
2470.84	0
2471.14	0
2471.44	0
2471.73	0
2472.03	0
2472.32	0
2472.62	0
2472.91	0
2473.21	0
2473.51	0
2473.8	0
2474.1	0
2474.39	0
2474.69	0
2474.98	0
2475.28	0
2475.57	0
2475.87	0
2476.17	0
2476.46	0
2476.76	0
2477.05	0
2477.35	0
2477.64	0
2477.94	0
2478.23	0
2478.53	0
2478.82	0
2479.12	0
2479.41	0
2479.71	0
2480	0
2480.3	0
2480.59	0
2480.89	0
2481.18	0
2481.48	0
2481.77	0
2482.07	0
2482.36	0
2482.66	0
2482.95	0
2483.25	0
2483.54	0
2483.84	0
2484.13	0
2484.43	0
2484.72	0
2485.02	0
2485.31	0
2485.6	0
2485.9	0
2486.19	0
2486.49	0
2486.78	0
2487.08	0
2487.37	0
2487.67	0
2487.96	0
2488.26	0
2488.55	0
2488.84	0
2489.14	0
2489.43	0
2489.73	0
2490.02	0
2490.32	0
2490.61	0
2490.9	0
2491.2	0
2491.49	0
2491.79	0
2492.08	0
2492.37	0
2492.67	0
2492.96	0
2493.26	0
2493.55	0
2493.84	0
2494.14	0
2494.43	0
2494.73	0
2495.02	0
2495.31	0
2495.61	0
2495.9	0
2496.2	0
2496.49	0
2496.78	0
2497.08	0
2497.37	0
2497.66	0
2497.96	0
2498.25	0
2498.54	0
2498.84	0
2499.13	0
2499.43	0
2499.72	0
2500.01	0
2500.31	0
2500.6	0
2500.89	0
2501.19	0
2501.48	0
2501.77	0
2502.07	0
2502.36	0
2502.65	0
2502.95	0
2503.24	0
2503.53	0
2503.82	0
2504.12	0
2504.41	0
2504.7	0
2505	0
2505.29	0
2505.58	0
2505.88	0
2506.17	0
2506.46	0
2506.76	0
2507.05	0
2507.34	0
2507.63	0
2507.93	0
2508.22	0
2508.51	0
2508.8	0
2509.1	0
2509.39	0
2509.68	0
2509.98	0
2510.27	0
2510.56	0
2510.85	0
2511.15	0
2511.44	0
2511.73	0
2512.02	0
2512.32	0
2512.61	0
2512.9	0
2513.19	0
2513.49	0
2513.78	0
2514.07	0
2514.36	0
2514.65	0
2514.95	0
2515.24	0
2515.53	0
2515.82	0
2516.12	0
2516.41	0
2516.7	0
2516.99	0
2517.28	0
2517.58	0
2517.87	0
2518.16	0
2518.45	0
2518.74	0
2519.04	0
2519.33	0
2519.62	0
2519.91	0
2520.2	0
2520.5	0
2520.79	0
2521.08	0
2521.37	0
2521.66	0
2521.95	0
2522.25	0
2522.54	0
2522.83	0
2523.12	0
2523.41	0
2523.7	0
2523.99	0
2524.29	0
2524.58	0
2524.87	0
2525.16	0
2525.45	0
2525.74	0
2526.03	0
2526.33	0
2526.62	0
2526.91	0
2527.2	0
2527.49	0
2527.78	0
2528.07	0
2528.36	0
2528.66	0
2528.95	0
2529.24	0
2529.53	0
2529.82	0
2530.11	0
2530.4	0
2530.69	0
2530.98	0
2531.27	0
2531.57	0
2531.86	0
2532.15	0
2532.44	0
2532.73	0
2533.02	0
2533.31	0
2533.6	0
2533.89	0
2534.18	0
2534.47	0
2534.76	0
2535.05	0
2535.35	0
2535.64	0
2535.93	0
2536.22	0
2536.51	0
2536.8	0
2537.09	0
2537.38	0
2537.67	0
2537.96	0
2538.25	0
2538.54	0
2538.83	0
2539.12	0
2539.41	0
2539.7	0
2539.99	0
2540.28	0
2540.57	0
2540.86	0
2541.15	0
2541.44	0
2541.73	0
2542.02	0
2542.31	0
2542.6	0
2542.89	0
2543.18	0
2543.47	0
2543.76	0
2544.05	0
2544.34	0
2544.63	0
2544.92	0
2545.21	0
2545.5	0
2545.79	0
2546.08	0
2546.37	0
2546.66	0
2546.95	0
2547.24	0
2547.53	0
2547.82	0
2548.11	0
2548.4	0
2548.69	0
2548.98	0
2549.27	0
2549.55	0
2549.84	0
2550.13	0
2550.42	0
2550.71	0
2551	0
2551.29	0
2551.58	0
2551.87	0
2552.16	0
2552.45	0
2552.74	0
2553.03	0
2553.31	0
2553.6	0
2553.89	0
2554.18	0
2554.47	0
2554.76	0
2555.05	0
2555.34	0
2555.63	0
2555.92	0
2556.2	0
2556.49	0
2556.78	0
2557.07	0
2557.36	0
2557.65	0
2557.94	0
2558.23	0
2558.51	0
2558.8	0
2559.09	0
2559.38	0
2559.67	0
2559.96	0
2560.25	0
2560.53	0
2560.82	0
2561.11	0
2561.4	0
2561.69	0
2561.98	0
2562.27	0
2562.55	0
2562.84	0
2563.13	0
2563.42	0
2563.71	0
2564	0
2564.28	0
2564.57	0
2564.86	0
2565.15	0
2565.44	0
2565.72	0
2566.01	0
2566.3	0
2566.59	0
2566.88	0
2567.16	0
2567.45	0
2567.74	0
2568.03	0
2568.32	0
2568.6	0
2568.89	0
2569.18	0
2569.47	0
2569.75	0

