Source: Spectrum Viewer

Chart: Pulse Spectrum

Series: 
Wavelength (nm)	S (a.u.)
1179.9	0
1180.29	0
1180.68	0
1181.06	0
1181.45	0
1181.83	0
1182.22	0
1182.6	0
1182.99	0
1183.38	0
1183.76	0
1184.15	0
1184.53	0
1184.92	0
1185.3	0
1185.69	0
1186.07	0
1186.46	0
1186.85	0
1187.23	0
1187.62	0
1188	0
1188.39	0
1188.77	0
1189.16	0
1189.54	0
1189.93	0
1190.31	0
1190.7	0
1191.08	0
1191.47	0
1191.85	0
1192.24	0
1192.62	0
1193.01	0
1193.39	0
1193.78	0
1194.16	0
1194.55	0
1194.93	0
1195.32	0
1195.7	0
1196.09	0
1196.47	0
1196.86	0
1197.24	0
1197.63	0
1198.01	0
1198.4	0
1198.78	0
1199.16	0
1199.55	0
1199.93	0
1200.32	0
1200.7	0
1201.09	0
1201.47	0
1201.86	0
1202.24	0
1202.63	0
1203.01	0
1203.39	0
1203.78	0
1204.16	0
1204.55	0
1204.93	0
1205.32	0
1205.7	0
1206.08	0
1206.47	0
1206.85	0
1207.24	0
1207.62	0
1208	0
1208.39	0
1208.77	0
1209.16	0
1209.54	0
1209.92	0
1210.31	0
1210.69	0
1211.08	0
1211.46	0
1211.84	0
1212.23	0
1212.61	0
1213	0
1213.38	0
1213.76	0
1214.15	0
1214.53	0
1214.91	0
1215.3	0
1215.68	0
1216.06	0
1216.45	0
1216.83	0
1217.22	0
1217.6	0
1217.98	0
1218.37	0
1218.75	0
1219.13	0
1219.52	0
1219.9	0
1220.28	0
1220.67	0
1221.05	0
1221.43	0
1221.82	0
1222.2	0
1222.58	0
1222.97	0
1223.35	0
1223.73	0
1224.11	0
1224.5	0
1224.88	0
1225.26	0
1225.65	0
1226.03	0
1226.41	0
1226.8	0
1227.18	0
1227.56	0
1227.94	0
1228.33	0
1228.71	0
1229.09	0
1229.47	0
1229.86	0
1230.24	0
1230.62	0
1231.01	0
1231.39	0
1231.77	0
1232.15	0
1232.54	0
1232.92	0
1233.3	0
1233.68	0
1234.07	0
1234.45	0
1234.83	0
1235.21	0
1235.6	0
1235.98	0
1236.36	0
1236.74	0
1237.12	0
1237.51	0
1237.89	0
1238.27	0
1238.65	0
1239.04	0
1239.42	0
1239.8	0
1240.18	0
1240.56	0
1240.95	0
1241.33	0
1241.71	0
1242.09	0
1242.47	0
1242.86	0
1243.24	0
1243.62	0
1244	0
1244.38	0
1244.77	0
1245.15	0
1245.53	0
1245.91	0
1246.29	0
1246.67	0
1247.06	0
1247.44	0
1247.82	0
1248.2	0
1248.58	0
1248.96	0
1249.34	0
1249.73	0
1250.11	0
1250.49	0
1250.87	0
1251.25	0
1251.63	0
1252.01	0
1252.4	0
1252.78	0
1253.16	0
1253.54	0
1253.92	0
1254.3	0
1254.68	0
1255.06	0
1255.45	0
1255.83	0
1256.21	0
1256.59	0
1256.97	0
1257.35	0
1257.73	0
1258.11	0
1258.49	0
1258.87	0
1259.26	0
1259.64	0
1260.02	0
1260.4	0
1260.78	0
1261.16	0
1261.54	0
1261.92	0
1262.3	0
1262.68	0
1263.06	0
1263.44	0
1263.82	0
1264.21	0
1264.59	0
1264.97	0
1265.35	0
1265.73	0
1266.11	0
1266.49	0
1266.87	0
1267.25	0
1267.63	0
1268.01	0
1268.39	0
1268.77	0
1269.15	0
1269.53	0
1269.91	0
1270.29	0
1270.67	0
1271.05	0
1271.43	0
1271.81	0
1272.19	0
1272.57	0
1272.95	0
1273.33	0
1273.71	0
1274.09	0
1274.47	0
1274.85	0
1275.23	0
1275.61	0
1275.99	0
1276.37	0
1276.75	0
1277.13	0
1277.51	0
1277.89	0
1278.27	0
1278.65	0
1279.03	0
1279.41	0
1279.79	0
1280.17	0
1280.55	0
1280.93	0
1281.31	0
1281.69	0
1282.07	0
1282.45	0
1282.82	0
1283.2	0
1283.58	0
1283.96	0
1284.34	0
1284.72	0
1285.1	0
1285.48	0
1285.86	0
1286.24	0
1286.62	0
1287	0
1287.38	0
1287.75	0
1288.13	0
1288.51	0
1288.89	0
1289.27	0
1289.65	0
1290.03	0
1290.41	0
1290.79	0
1291.17	0
1291.54	0
1291.92	0
1292.3	0
1292.68	0
1293.06	0
1293.44	0
1293.82	0
1294.2	0
1294.57	0
1294.95	0
1295.33	0
1295.71	0
1296.09	0
1296.47	0
1296.85	0
1297.22	0
1297.6	0
1297.98	0
1298.36	0
1298.74	0
1299.12	0
1299.5	0
1299.87	0
1300.25	0
1300.63	0
1301.01	0
1301.39	0
1301.77	0
1302.14	0
1302.52	0
1302.9	0
1303.28	0
1303.66	0
1304.03	0
1304.41	0
1304.79	0
1305.17	0
1305.55	0
1305.92	0
1306.3	0
1306.68	0
1307.06	0
1307.44	0
1307.81	0
1308.19	0
1308.57	0
1308.95	0
1309.32	0
1309.7	0
1310.08	0
1310.46	0
1310.84	0
1311.21	0
1311.59	0
1311.97	0
1312.35	0
1312.72	0
1313.1	0
1313.48	0
1313.86	0
1314.23	0
1314.61	0
1314.99	0
1315.37	0
1315.74	0
1316.12	0
1316.5	0
1316.87	0
1317.25	0
1317.63	0
1318.01	0
1318.38	0
1318.76	0
1319.14	0
1319.52	0
1319.89	0
1320.27	0
1320.65	0
1321.02	0
1321.4	0
1321.78	0
1322.15	0
1322.53	0
1322.91	0
1323.29	0
1323.66	0
1324.04	0
1324.42	0
1324.79	0
1325.17	0
1325.55	0
1325.92	0
1326.3	0
1326.68	0
1327.05	0
1327.43	0
1327.81	0
1328.18	0
1328.56	0
1328.94	0
1329.31	0
1329.69	0
1330.06	0
1330.44	0
1330.82	0
1331.19	0
1331.57	0
1331.95	0
1332.32	0
1332.7	0
1333.08	0
1333.45	0
1333.83	0
1334.2	0
1334.58	0
1334.96	0
1335.33	0
1335.71	0
1336.08	0
1336.46	0
1336.84	0
1337.21	0
1337.59	0
1337.96	0
1338.34	0
1338.72	0
1339.09	0
1339.47	0
1339.84	0
1340.22	0
1340.6	0
1340.97	0
1341.35	0
1341.72	0
1342.1	0
1342.47	0
1342.85	0
1343.23	0
1343.6	0
1343.98	0
1344.35	0
1344.73	0
1345.1	0
1345.48	0
1345.85	0
1346.23	0
1346.61	0
1346.98	0
1347.36	0
1347.73	0
1348.11	0
1348.48	0
1348.86	0
1349.23	0
1349.61	0
1349.98	0
1350.36	0
1350.73	0
1351.11	0
1351.48	0
1351.86	0
1352.23	0
1352.61	0
1352.98	0
1353.36	0
1353.73	0
1354.11	0
1354.48	0
1354.86	0
1355.23	0
1355.61	0
1355.98	0
1356.36	0
1356.73	0
1357.11	0
1357.48	0
1357.86	0
1358.23	0
1358.61	0
1358.98	0
1359.35	0
1359.73	0
1360.1	0
1360.48	0
1360.85	0
1361.23	0
1361.6	0
1361.98	0
1362.35	0
1362.72	0
1363.1	0
1363.47	0
1363.85	0
1364.22	0
1364.6	0
1364.97	0
1365.34	0
1365.72	0
1366.09	0
1366.47	0
1366.84	0
1367.22	0
1367.59	0
1367.96	0
1368.34	0
1368.71	0
1369.09	0
1369.46	0
1369.83	45
1370.21	40
1370.58	43
1370.96	44
1371.33	44
1371.7	47
1372.08	44
1372.45	45
1372.82	44
1373.2	43
1373.57	43
1373.95	45
1374.32	45
1374.69	46
1375.07	45
1375.44	44
1375.81	44
1376.19	44
1376.56	43
1376.93	45
1377.31	45
1377.68	44
1378.05	44
1378.43	45
1378.8	46
1379.17	44
1379.55	44
1379.92	46
1380.29	43
1380.67	44
1381.04	45
1381.41	45
1381.79	46
1382.16	44
1382.53	44
1382.91	45
1383.28	46
1383.65	41
1384.03	45
1384.4	44
1384.77	44
1385.14	44
1385.52	45
1385.89	45
1386.26	46
1386.64	45
1387.01	44
1387.38	43
1387.75	44
1388.13	45
1388.5	43
1388.87	48
1389.25	45
1389.62	45
1389.99	44
1390.36	45
1390.74	43
1391.11	46
1391.48	45
1391.85	45
1392.23	45
1392.6	45
1392.97	45
1393.34	45
1393.72	45
1394.09	46
1394.46	45
1394.83	44
1395.21	45
1395.58	46
1395.95	45
1396.32	45
1396.69	46
1397.07	45
1397.44	45
1397.81	44
1398.18	45
1398.55	47
1398.93	46
1399.3	46
1399.67	47
1400.04	45
1400.41	45
1400.79	46
1401.16	46
1401.53	45
1401.9	44
1402.27	45
1402.65	44
1403.02	46
1403.39	45
1403.76	46
1404.13	46
1404.51	44
1404.88	46
1405.25	46
1405.62	45
1405.99	46
1406.36	46
1406.74	45
1407.11	47
1407.48	45
1407.85	46
1408.22	48
1408.59	41
1408.96	47
1409.34	45
1409.71	47
1410.08	45
1410.45	47
1410.82	45
1411.19	46
1411.56	47
1411.93	45
1412.31	47
1412.68	45
1413.05	45
1413.42	44
1413.79	46
1414.16	47
1414.53	45
1414.9	44
1415.27	47
1415.65	46
1416.02	46
1416.39	48
1416.76	45
1417.13	46
1417.5	47
1417.87	47
1418.24	46
1418.61	47
1418.98	46
1419.35	47
1419.73	46
1420.1	47
1420.47	45
1420.84	45
1421.21	45
1421.58	47
1421.95	48
1422.32	47
1422.69	47
1423.06	46
1423.43	45
1423.8	48
1424.17	47
1424.54	48
1424.91	47
1425.28	47
1425.65	46
1426.02	47
1426.39	46
1426.76	47
1427.14	46
1427.51	43
1427.88	46
1428.25	46
1428.62	46
1428.99	47
1429.36	44
1429.73	48
1430.1	47
1430.47	47
1430.84	47
1431.21	48
1431.58	47
1431.95	47
1432.32	47
1432.69	47
1433.06	47
1433.43	49
1433.8	47
1434.17	47
1434.54	47
1434.91	47
1435.28	47
1435.64	49
1436.01	47
1436.38	46
1436.75	43
1437.12	47
1437.49	47
1437.86	46
1438.23	47
1438.6	48
1438.97	48
1439.34	47
1439.71	48
1440.08	48
1440.45	46
1440.82	47
1441.19	47
1441.56	44
1441.93	47
1442.3	49
1442.67	47
1443.03	48
1443.4	39
1443.77	48
1444.14	47
1444.51	47
1444.88	49
1445.25	47
1445.62	48
1445.99	47
1446.36	48
1446.73	48
1447.09	48
1447.46	47
1447.83	49
1448.2	48
1448.57	47
1448.94	48
1449.31	46
1449.68	48
1450.05	47
1450.41	48
1450.78	47
1451.15	48
1451.52	45
1451.89	48
1452.26	48
1452.63	48
1453	48
1453.36	46
1453.73	49
1454.1	48
1454.47	50
1454.84	49
1455.21	47
1455.57	49
1455.94	48
1456.31	46
1456.68	48
1457.05	48
1457.42	48
1457.78	48
1458.15	50
1458.52	49
1458.89	50
1459.26	49
1459.63	47
1459.99	49
1460.36	48
1460.73	49
1461.1	49
1461.47	49
1461.83	49
1462.2	50
1462.57	51
1462.94	50
1463.31	49
1463.67	49
1464.04	48
1464.41	50
1464.78	47
1465.15	49
1465.51	45
1465.88	50
1466.25	51
1466.62	50
1466.98	49
1467.35	50
1467.72	51
1468.09	50
1468.46	49
1468.82	51
1469.19	51
1469.56	50
1469.93	50
1470.29	49
1470.66	49
1471.03	52
1471.4	50
1471.76	50
1472.13	50
1472.5	50
1472.86	50
1473.23	49
1473.6	51
1473.97	52
1474.33	52
1474.7	49
1475.07	51
1475.44	51
1475.8	52
1476.17	51
1476.54	50
1476.9	49
1477.27	52
1477.64	51
1478	53
1478.37	51
1478.74	52
1479.11	53
1479.47	53
1479.84	52
1480.21	52
1480.57	52
1480.94	51
1481.31	52
1481.67	52
1482.04	52
1482.41	53
1482.77	51
1483.14	54
1483.51	52
1483.87	53
1484.24	53
1484.61	53
1484.97	53
1485.34	53
1485.71	54
1486.07	55
1486.44	48
1486.81	52
1487.17	53
1487.54	54
1487.9	53
1488.27	53
1488.64	55
1489	52
1489.37	53
1489.74	54
1490.1	56
1490.47	54
1490.83	54
1491.2	52
1491.57	53
1491.93	53
1492.3	55
1492.66	54
1493.03	55
1493.4	54
1493.76	55
1494.13	55
1494.49	55
1494.86	55
1495.23	56
1495.59	54
1495.96	56
1496.32	56
1496.69	49
1497.06	56
1497.42	57
1497.79	55
1498.15	53
1498.52	56
1498.88	57
1499.25	55
1499.62	56
1499.98	57
1500.35	56
1500.71	58
1501.08	58
1501.44	57
1501.81	59
1502.17	57
1502.54	59
1502.9	59
1503.27	57
1503.64	60
1504	57
1504.37	58
1504.73	60
1505.1	59
1505.46	60
1505.83	59
1506.19	58
1506.56	59
1506.92	61
1507.29	60
1507.65	61
1508.02	61
1508.38	60
1508.75	60
1509.11	60
1509.48	60
1509.84	59
1510.21	59
1510.57	61
1510.94	60
1511.3	61
1511.67	62
1512.03	62
1512.4	59
1512.76	61
1513.13	62
1513.49	63
1513.85	57
1514.22	61
1514.58	63
1514.95	63
1515.31	64
1515.68	65
1516.04	63
1516.41	64
1516.77	64
1517.14	64
1517.5	63
1517.86	65
1518.23	64
1518.59	65
1518.96	66
1519.32	68
1519.69	65
1520.05	66
1520.41	66
1520.78	68
1521.14	67
1521.51	67
1521.87	68
1522.24	66
1522.6	68
1522.96	68
1523.33	67
1523.69	68
1524.06	69
1524.42	67
1524.78	68
1525.15	66
1525.51	69
1525.88	67
1526.24	70
1526.6	70
1526.97	68
1527.33	69
1527.69	69
1528.06	70
1528.42	70
1528.79	69
1529.15	69
1529.51	71
1529.88	65
1530.24	70
1530.6	71
1530.97	72
1531.33	70
1531.69	72
1532.06	71
1532.42	69
1532.78	72
1533.15	71
1533.51	73
1533.87	72
1534.24	72
1534.6	73
1534.96	72
1535.33	73
1535.69	72
1536.05	73
1536.42	73
1536.78	72
1537.14	72
1537.51	72
1537.87	72
1538.23	73
1538.6	73
1538.96	74
1539.32	73
1539.68	73
1540.05	73
1540.41	75
1540.77	73
1541.14	73
1541.5	72
1541.86	73
1542.23	73
1542.59	73
1542.95	74
1543.31	75
1543.68	76
1544.04	74
1544.4	74
1544.76	76
1545.13	74
1545.49	74
1545.85	75
1546.21	75
1546.58	75
1546.94	75
1547.3	75
1547.66	76
1548.03	75
1548.39	77
1548.75	76
1549.11	77
1549.48	78
1549.84	76
1550.2	76
1550.56	76
1550.93	76
1551.29	77
1551.65	76
1552.01	77
1552.37	76
1552.74	79
1553.1	79
1553.46	78
1553.82	78
1554.18	79
1554.55	78
1554.91	79
1555.27	79
1555.63	80
1555.99	80
1556.36	79
1556.72	80
1557.08	79
1557.44	71
1557.8	81
1558.17	80
1558.53	78
1558.89	81
1559.25	83
1559.61	81
1559.97	81
1560.34	80
1560.7	78
1561.06	82
1561.42	81
1561.78	81
1562.14	81
1562.5	79
1562.87	78
1563.23	82
1563.59	81
1563.95	79
1564.31	78
1564.67	78
1565.03	82
1565.4	81
1565.76	80
1566.12	81
1566.48	82
1566.84	80
1567.2	80
1567.56	81
1567.92	83
1568.29	80
1568.65	81
1569.01	81
1569.37	80
1569.73	83
1570.09	79
1570.45	82
1570.81	79
1571.17	78
1571.53	81
1571.89	80
1572.26	81
1572.62	81
1572.98	82
1573.34	79
1573.7	80
1574.06	81
1574.42	78
1574.78	78
1575.14	79
1575.5	80
1575.86	79
1576.22	79
1576.58	73
1576.94	77
1577.3	78
1577.67	80
1578.03	78
1578.39	77
1578.75	78
1579.11	76
1579.47	76
1579.83	79
1580.19	79
1580.55	79
1580.91	75
1581.27	77
1581.63	79
1581.99	78
1582.35	76
1582.71	77
1583.07	76
1583.43	78
1583.79	78
1584.15	80
1584.51	76
1584.87	75
1585.23	75
1585.59	77
1585.95	78
1586.31	78
1586.67	78
1587.03	76
1587.39	79
1587.75	79
1588.11	78
1588.47	77
1588.83	78
1589.19	78
1589.55	78
1589.91	78
1590.27	80
1590.63	77
1590.99	77
1591.35	77
1591.71	79
1592.07	80
1592.42	82
1592.78	77
1593.14	78
1593.5	78
1593.86	78
1594.22	82
1594.58	78
1594.94	77
1595.3	78
1595.66	79
1596.02	77
1596.38	77
1596.74	78
1597.1	75
1597.46	75
1597.81	79
1598.17	77
1598.53	82
1598.89	82
1599.25	75
1599.61	80
1599.97	80
1600.33	80
1600.69	79
1601.05	77
1601.4	75
1601.76	75
1602.12	76
1602.48	75
1602.84	75
1603.2	74
1603.56	73
1603.92	74
1604.28	74
1604.63	76
1604.99	74
1605.35	75
1605.71	74
1606.07	72
1606.43	75
1606.79	73
1607.14	73
1607.5	76
1607.86	74
1608.22	76
1608.58	77
1608.94	72
1609.29	73
1609.65	70
1610.01	78
1610.37	76
1610.73	73
1611.09	74
1611.44	73
1611.8	73
1612.16	75
1612.52	78
1612.88	76
1613.24	72
1613.59	74
1613.95	74
1614.31	79
1614.67	75
1615.03	72
1615.38	73
1615.74	76
1616.1	76
1616.46	79
1616.82	75
1617.17	75
1617.53	74
1617.89	75
1618.25	78
1618.6	75
1618.96	79
1619.32	74
1619.68	73
1620.04	72
1620.39	73
1620.75	76
1621.11	70
1621.47	70
1621.82	71
1622.18	77
1622.54	75
1622.9	79
1623.25	72
1623.61	74
1623.97	67
1624.33	71
1624.68	81
1625.04	72
1625.4	73
1625.75	72
1626.11	73
1626.47	65
1626.83	75
1627.18	67
1627.54	69
1627.9	67
1628.26	70
1628.61	70
1628.97	70
1629.33	66
1629.68	65
1630.04	66
1630.4	67
1630.75	66
1631.11	65
1631.47	64
1631.83	62
1632.18	61
1632.54	66
1632.9	63
1633.25	62
1633.61	64
1633.97	63
1634.32	63
1634.68	65
1635.04	65
1635.39	64
1635.75	60
1636.11	60
1636.46	60
1636.82	63
1637.18	59
1637.53	58
1637.89	56
1638.25	58
1638.6	58
1638.96	57
1639.31	58
1639.67	55
1640.03	55
1640.38	56
1640.74	57
1641.1	56
1641.45	54
1641.81	54
1642.16	54
1642.52	55
1642.88	54
1643.23	54
1643.59	53
1643.95	50
1644.3	53
1644.66	53
1645.01	55
1645.37	54
1645.73	53
1646.08	55
1646.44	53
1646.79	54
1647.15	52
1647.51	51
1647.86	52
1648.22	52
1648.57	52
1648.93	53
1649.28	49
1649.64	51
1650	53
1650.35	53
1650.71	55
1651.06	54
1651.42	52
1651.77	54
1652.13	53
1652.48	53
1652.84	53
1653.2	55
1653.55	55
1653.91	56
1654.26	57
1654.62	58
1654.97	57
1655.33	58
1655.68	57
1656.04	59
1656.39	60
1656.75	58
1657.1	62
1657.46	62
1657.81	61
1658.17	64
1658.52	64
1658.88	63
1659.23	67
1659.59	66
1659.94	65
1660.3	66
1660.65	68
1661.01	69
1661.36	71
1661.72	70
1662.07	71
1662.43	71
1662.78	74
1663.14	77
1663.49	76
1663.85	77
1664.2	76
1664.56	81
1664.91	82
1665.27	85
1665.62	75
1665.98	83
1666.33	85
1666.69	85
1667.04	90
1667.39	89
1667.75	88
1668.1	91
1668.46	91
1668.81	93
1669.17	94
1669.52	96
1669.88	95
1670.23	98
1670.58	99
1670.94	99
1671.29	102
1671.65	102
1672	103
1672.36	104
1672.71	104
1673.06	107
1673.42	108
1673.77	106
1674.13	107
1674.48	108
1674.83	111
1675.19	111
1675.54	112
1675.9	115
1676.25	114
1676.6	116
1676.96	114
1677.31	117
1677.67	118
1678.02	115
1678.37	120
1678.73	120
1679.08	118
1679.43	121
1679.79	120
1680.14	122
1680.5	123
1680.85	121
1681.2	122
1681.56	124
1681.91	125
1682.26	127
1682.62	125
1682.97	128
1683.32	127
1683.68	128
1684.03	129
1684.38	128
1684.74	128
1685.09	126
1685.44	130
1685.8	130
1686.15	128
1686.5	134
1686.86	129
1687.21	132
1687.56	132
1687.92	130
1688.27	134
1688.62	131
1688.98	132
1689.33	131
1689.68	131
1690.03	133
1690.39	132
1690.74	130
1691.09	130
1691.45	128
1691.8	134
1692.15	130
1692.5	130
1692.86	132
1693.21	127
1693.56	132
1693.92	130
1694.27	130
1694.62	129
1694.97	125
1695.33	130
1695.68	128
1696.03	131
1696.38	130
1696.74	127
1697.09	128
1697.44	129
1697.79	129
1698.15	129
1698.5	126
1698.85	129
1699.2	128
1699.56	128
1699.91	125
1700.26	126
1700.61	126
1700.97	126
1701.32	125
1701.67	128
1702.02	126
1702.37	128
1702.73	127
1703.08	126
1703.43	129
1703.78	129
1704.13	129
1704.49	131
1704.84	129
1705.19	132
1705.54	128
1705.89	132
1706.25	134
1706.6	132
1706.95	135
1707.3	134
1707.65	135
1708.01	137
1708.36	135
1708.71	140
1709.06	138
1709.41	138
1709.76	141
1710.12	138
1710.47	144
1710.82	143
1711.17	144
1711.52	145
1711.87	145
1712.23	147
1712.58	150
1712.93	149
1713.28	153
1713.63	148
1713.98	154
1714.33	155
1714.69	154
1715.04	161
1715.39	156
1715.74	160
1716.09	163
1716.44	163
1716.79	169
1717.14	167
1717.5	169
1717.85	171
1718.2	169
1718.55	176
1718.9	176
1719.25	177
1719.6	182
1719.95	179
1720.3	183
1720.65	186
1721.01	186
1721.36	192
1721.71	187
1722.06	192
1722.41	196
1722.76	190
1723.11	199
1723.46	197
1723.81	204
1724.16	205
1724.51	201
1724.86	213
1725.21	211
1725.56	209
1725.92	220
1726.27	212
1726.62	217
1726.97	223
1727.32	214
1727.67	227
1728.02	222
1728.37	222
1728.72	233
1729.07	226
1729.42	230
1729.77	237
1730.12	231
1730.47	241
1730.82	236
1731.17	237
1731.52	245
1731.87	237
1732.22	248
1732.57	243
1732.92	251
1733.27	250
1733.62	246
1733.97	262
1734.32	245
1734.67	253
1735.02	257
1735.37	251
1735.72	258
1736.07	258
1736.42	262
1736.77	255
1737.12	253
1737.47	267
1737.82	250
1738.17	261
1738.52	260
1738.87	253
1739.22	261
1739.57	253
1739.92	273
1740.27	265
1740.62	259
1740.97	278
1741.32	253
1741.67	258
1742.02	267
1742.37	252
1742.72	266
1743.06	248
1743.41	257
1743.76	270
1744.11	249
1744.46	249
1744.81	251
1745.16	242
1745.51	245
1745.86	239
1746.21	240
1746.56	246
1746.91	242
1747.26	243
1747.6	257
1747.95	244
1748.3	242
1748.65	244
1749	230
1749.35	233
1749.7	223
1750.05	226
1750.4	237
1750.75	224
1751.09	227
1751.44	235
1751.79	229
1752.14	224
1752.49	220
1752.84	219
1753.19	212
1753.54	202
1753.88	211
1754.23	214
1754.58	206
1754.93	201
1755.28	203
1755.63	214
1755.98	200
1756.32	187
1756.67	195
1757.02	192
1757.37	183
1757.72	170
1758.07	180
1758.42	186
1758.76	181
1759.11	180
1759.46	200
1759.81	194
1760.16	177
1760.5	176
1760.85	178
1761.2	170
1761.55	156
1761.9	156
1762.25	188
1762.59	174
1762.94	168
1763.29	193
1763.64	189
1763.99	179
1764.33	165
1764.68	163
1765.03	179
1765.38	146
1765.73	148
1766.07	197
1766.42	174
1766.77	180
1767.12	199
1767.46	194
1767.81	194
1768.16	172
1768.51	181
1768.85	192
1769.2	159
1769.55	177
1769.9	215
1770.25	205
1770.59	228
1770.94	238
1771.29	227
1771.64	211
1771.98	202
1772.33	242
1772.68	222
1773.02	238
1773.37	255
1773.72	258
1774.07	309
1774.41	296
1774.76	295
1775.11	342
1775.46	290
1775.8	249
1776.15	274
1776.5	268
1776.84	334
1777.19	329
1777.54	307
1777.89	390
1778.23	418
1778.58	389
1778.93	403
1779.27	405
1779.62	391
1779.97	394
1780.31	398
1780.66	364
1781.01	423
1781.35	405
1781.7	446
1782.05	580
1782.39	479
1782.74	465
1783.09	476
1783.43	509
1783.78	574
1784.13	554
1784.47	505
1784.82	564
1785.17	463
1785.51	449
1785.86	559
1786.21	712
1786.55	704
1786.9	718
1787.25	733
1787.59	827
1787.94	700
1788.29	653
1788.63	594
1788.98	653
1789.32	753
1789.67	727
1790.02	698
1790.36	525
1790.71	773
1791.06	1250
1791.4	1069
1791.75	1008
1792.09	1070
1792.44	1178
1792.79	1391
1793.13	1153
1793.48	1223
1793.82	1211
1794.17	1087
1794.52	1181
1794.86	1018
1795.21	1004
1795.55	996
1795.9	841
1796.24	693
1796.59	640
1796.94	1647
1797.28	2091
1797.63	1762
1797.97	1501
1798.32	1270
1798.66	1230
1799.01	1261
1799.36	1237
1799.7	1743
1800.05	1324
1800.39	1093
1800.74	1600
1801.08	1328
1801.43	1155
1801.77	2577
1802.12	2282
1802.46	1840
1802.81	1295
1803.15	1605
1803.5	1787
1803.85	1559
1804.19	1402
1804.54	1277
1804.88	929
1805.23	1305
1805.57	2055
1805.92	1345
1806.26	1332
1806.61	2780
1806.95	2557
1807.3	1698
1807.64	1405
1807.99	2300
1808.33	3261
1808.68	2401
1809.02	2051
1809.37	1466
1809.71	1414
1810.06	3614
1810.4	3210
1810.75	2631
1811.09	1930
1811.43	1536
1811.78	1883
1812.12	3893
1812.47	3857
1812.81	3581
1813.16	3030
1813.5	2858
1813.85	2584
1814.19	2692
1814.54	2561
1814.88	2301
1815.23	2221
1815.57	1893
1815.91	1782
1816.26	1369
1816.6	1048
1816.95	1105
1817.29	3397
1817.64	3894
1817.98	2269
1818.32	2915
1818.67	3334
1819.01	4041
1819.36	3527
1819.7	3171
1820.05	2877
1820.39	2437
1820.73	2707
1821.08	2804
1821.42	2653
1821.77	2693
1822.11	2253
1822.45	2149
1822.8	1626
1823.14	2126
1823.49	2469
1823.83	1394
1824.17	3489
1824.52	4686
1824.86	3574
1825.2	3076
1825.55	2754
1825.89	2607
1826.24	1986
1826.58	1666
1826.92	2965
1827.27	4115
1827.61	3100
1827.95	2854
1828.3	2808
1828.64	2418
1828.98	2288
1829.33	1743
1829.67	1437
1830.02	2294
1830.36	4399
1830.7	3316
1831.05	2981
1831.39	3696
1831.73	3186
1832.08	3054
1832.42	2623
1832.76	2512
1833.1	2379
1833.45	2190
1833.79	2351
1834.13	1991
1834.48	1849
1834.82	2226
1835.16	2435
1835.51	2253
1835.85	2117
1836.19	2097
1836.54	1735
1836.88	1707
1837.22	1413
1837.56	1245
1837.91	1039
1838.25	1563
1838.59	2135
1838.94	2757
1839.28	2818
1839.62	1895
1839.96	1541
1840.31	1950
1840.65	1920
1840.99	1269
1841.34	1061
1841.68	2488
1842.02	3709
1842.36	3021
1842.71	2358
1843.05	1969
1843.39	1191
1843.73	1678
1844.08	3465
1844.42	3296
1844.76	2956
1845.1	3080
1845.45	2638
1845.79	1882
1846.13	1860
1846.47	2674
1846.81	2199
1847.16	1789
1847.5	1303
1847.84	2318
1848.18	3153
1848.53	2691
1848.87	2164
1849.21	1988
1849.55	2027
1849.89	1699
1850.24	1725
1850.58	1680
1850.92	1560
1851.26	1392
1851.6	1538
1851.95	1607
1852.29	1542
1852.63	1531
1852.97	1360
1853.31	1303
1853.66	1177
1854	1164
1854.34	947
1854.68	909
1855.02	1813
1855.36	1902
1855.71	1531
1856.05	1244
1856.39	1181
1856.73	1154
1857.07	1158
1857.41	942
1857.76	1052
1858.1	1206
1858.44	1008
1858.78	998
1859.12	881
1859.46	903
1859.8	847
1860.15	826
1860.49	709
1860.83	715
1861.17	1493
1861.51	1491
1861.85	1064
1862.19	863
1862.53	803
1862.88	733
1863.22	1011
1863.56	946
1863.9	827
1864.24	833
1864.58	760
1864.92	1010
1865.26	839
1865.6	761
1865.94	730
1866.29	658
1866.63	652
1866.97	647
1867.31	634
1867.65	602
1867.99	642
1868.33	682
1868.67	805
1869.01	702
1869.35	657
1869.69	705
1870.03	962
1870.37	1538
1870.72	1010
1871.06	1037
1871.4	978
1871.74	738
1872.08	694
1872.42	668
1872.76	714
1873.1	850
1873.44	1441
1873.78	1010
1874.12	739
1874.46	651
1874.8	713
1875.14	777
1875.48	1114
1875.82	1405
1876.16	911
1876.5	787
1876.84	985
1877.18	1090
1877.52	873
1877.86	746
1878.2	743
1878.54	693
1878.88	764
1879.22	785
1879.56	727
1879.9	814
1880.24	783
1880.58	857
1880.92	875
1881.26	879
1881.6	945
1881.94	945
1882.28	874
1882.62	812
1882.96	918
1883.3	1050
1883.64	1216
1883.98	1161
1884.32	906
1884.66	834
1885	873
1885.34	912
1885.68	927
1886.02	927
1886.36	1034
1886.7	982
1887.04	917
1887.38	948
1887.72	967
1888.06	969
1888.39	1009
1888.73	1119
1889.07	1058
1889.41	1176
1889.75	1449
1890.09	1290
1890.43	1213
1890.77	1422
1891.11	1124
1891.45	941
1891.79	1026
1892.13	1012
1892.47	1033
1892.8	1099
1893.14	1151
1893.48	1141
1893.82	1240
1894.16	1327
1894.5	1212
1894.84	1094
1895.18	1167
1895.52	1192
1895.86	1168
1896.19	1274
1896.53	1258
1896.87	1271
1897.21	1324
1897.55	1352
1897.89	1236
1898.23	1345
1898.57	1411
1898.9	1459
1899.24	1236
1899.58	1313
1899.92	1328
1900.26	1330
1900.6	1393
1900.94	1321
1901.27	1359
1901.61	1371
1901.95	1428
1902.29	1325
1902.63	1414
1902.97	1410
1903.3	1401
1903.64	1432
1903.98	1510
1904.32	1418
1904.66	1351
1905	1463
1905.33	1459
1905.67	1445
1906.01	1497
1906.35	1509
1906.69	1500
1907.02	1452
1907.36	1434
1907.7	1449
1908.04	1439
1908.38	1520
1908.71	1495
1909.05	1462
1909.39	1513
1909.73	1518
1910.07	1456
1910.4	1405
1910.74	1479
1911.08	1502
1911.42	1465
1911.76	1480
1912.09	1538
1912.43	1460
1912.77	1463
1913.11	1538
1913.44	1509
1913.78	1464
1914.12	1504
1914.46	1533
1914.79	1460
1915.13	1499
1915.47	1530
1915.81	1439
1916.14	1419
1916.48	1519
1916.82	1478
1917.16	1464
1917.49	1490
1917.83	1526
1918.17	1426
1918.5	1489
1918.84	1492
1919.18	1452
1919.52	1423
1919.85	1517
1920.19	1439
1920.53	1425
1920.87	1450
1921.2	1481
1921.54	1401
1921.88	1449
1922.21	1462
1922.55	1419
1922.89	1402
1923.22	1471
1923.56	1429
1923.9	1400
1924.23	1424
1924.57	1411
1924.91	1372
1925.25	1393
1925.58	1430
1925.92	1375
1926.26	1376
1926.59	1398
1926.93	1391
1927.27	1351
1927.6	1405
1927.94	1383
1928.28	1327
1928.61	1364
1928.95	1415
1929.29	1325
1929.62	1359
1929.96	1351
1930.29	1347
1930.63	1276
1930.97	1365
1931.3	1354
1931.64	1313
1931.98	1340
1932.31	1357
1932.65	1310
1932.99	1323
1933.32	1350
1933.66	1302
1933.99	1283
1934.33	1331
1934.67	1325
1935	1287
1935.34	1370
1935.67	1318
1936.01	1296
1936.35	1352
1936.68	1343
1937.02	1315
1937.35	1357
1937.69	1337
1938.03	1280
1938.36	1379
1938.7	1350
1939.03	1312
1939.37	1322
1939.7	1370
1940.04	1298
1940.38	1355
1940.71	1392
1941.05	1334
1941.38	1366
1941.72	1375
1942.05	1360
1942.39	1344
1942.73	1445
1943.06	1369
1943.4	1360
1943.73	1379
1944.07	1416
1944.4	1350
1944.74	1441
1945.07	1418
1945.41	1366
1945.74	1430
1946.08	1463
1946.42	1442
1946.75	1455
1947.09	1493
1947.42	1409
1947.76	1428
1948.09	1491
1948.43	1495
1948.76	1419
1949.1	1504
1949.43	1487
1949.77	1467
1950.1	1471
1950.44	1548
1950.77	1471
1951.11	1479
1951.44	1520
1951.78	1574
1952.11	1486
1952.45	1577
1952.78	1561
1953.12	1561
1953.45	1520
1953.79	1635
1954.12	1572
1954.46	1563
1954.79	1601
1955.12	1650
1955.46	1548
1955.79	1629
1956.13	1646
1956.46	1610
1956.8	1578
1957.13	1673
1957.47	1620
1957.8	1614
1958.14	1652
1958.47	1689
1958.8	1606
1959.14	1642
1959.47	1677
1959.81	1668
1960.14	1592
1960.48	1690
1960.81	1672
1961.14	1651
1961.48	1620
1961.81	1727
1962.15	1658
1962.48	1644
1962.82	1657
1963.15	1717
1963.48	1622
1963.82	1652
1964.15	1688
1964.49	1690
1964.82	1614
1965.15	1665
1965.49	1685
1965.82	1634
1966.16	1627
1966.49	1695
1966.82	1669
1967.16	1618
1967.49	1649
1967.83	1684
1968.16	1621
1968.49	1601
1968.83	1665
1969.16	1617
1969.49	1586
1969.83	1600
1970.16	1689
1970.49	1591
1970.83	1584
1971.16	1592
1971.5	1638
1971.83	1542
1972.16	1567
1972.5	1585
1972.83	1561
1973.16	1501
1973.5	1539
1973.83	1590
1974.16	1538
1974.5	1496
1974.83	1473
1975.16	1527
1975.5	1452
1975.83	1479
1976.16	1489
1976.49	1492
1976.83	1383
1977.16	1444
1977.49	1469
1977.83	1435
1978.16	1375
1978.49	1396
1978.83	1405
1979.16	1363
1979.49	1379
1979.83	1383
1980.16	1349
1980.49	1277
1980.82	1344
1981.16	1329
1981.49	1305
1981.82	1251
1982.15	1299
1982.49	1230
1982.82	1219
1983.15	1222
1983.49	1245
1983.82	1179
1984.15	1155
1984.48	1157
1984.82	1175
1985.15	1109
1985.48	1122
1985.81	1120
1986.15	1089
1986.48	1065
1986.81	1086
1987.14	1096
1987.48	1011
1987.81	1026
1988.14	1013
1988.47	1003
1988.81	965
1989.14	1007
1989.47	958
1989.8	931
1990.13	909
1990.47	953
1990.8	893
1991.13	869
1991.46	864
1991.79	856
1992.13	806
1992.46	825
1992.79	823
1993.12	817
1993.45	776
1993.79	789
1994.12	786
1994.45	759
1994.78	745
1995.11	744
1995.45	726
1995.78	689
1996.11	705
1996.44	690
1996.77	670
1997.1	650
1997.44	661
1997.77	652
1998.1	632
1998.43	639
1998.76	652
1999.09	601
1999.43	595
1999.76	606
2000.09	613
2000.42	584
2000.75	594
2001.08	582
2001.41	567
2001.75	556
2002.08	587
2002.41	561
2002.74	547
2003.07	541
2003.4	551
2003.73	518
2004.06	539
2004.4	536
2004.73	526
2005.06	506
2005.39	532
2005.72	511
2006.05	508
2006.38	512
2006.71	517
2007.04	490
2007.37	504
2007.71	513
2008.04	504
2008.37	491
2008.7	508
2009.03	502
2009.36	501
2009.69	506
2010.02	523
2010.35	499
2010.68	507
2011.01	524
2011.34	524
2011.67	509
2012.01	527
2012.34	529
2012.67	522
2013	523
2013.33	546
2013.66	532
2013.99	536
2014.32	544
2014.65	559
2014.98	538
2015.31	556
2015.64	560
2015.97	566
2016.3	547
2016.63	572
2016.96	576
2017.29	572
2017.62	568
2017.95	582
2018.28	585
2018.61	579
2018.94	587
2019.27	598
2019.6	598
2019.93	582
2020.26	608
2020.59	608
2020.92	609
2021.25	601
2021.58	624
2021.91	611
2022.24	615
2022.57	618
2022.9	635
2023.23	619
2023.56	626
2023.89	635
2024.22	639
2024.55	627
2024.88	640
2025.21	650
2025.54	640
2025.87	639
2026.2	643
2026.53	661
2026.86	644
2027.19	647
2027.52	651
2027.85	662
2028.18	653
2028.51	651
2028.84	663
2029.16	652
2029.49	647
2029.82	642
2030.15	668
2030.48	651
2030.81	649
2031.14	637
2031.47	659
2031.8	646
2032.13	642
2032.46	651
2032.79	648
2033.12	639
2033.44	632
2033.77	645
2034.1	639
2034.43	627
2034.76	622
2035.09	628
2035.42	625
2035.75	614
2036.08	618
2036.41	611
2036.73	615
2037.06	601
2037.39	602
2037.72	606
2038.05	598
2038.38	591
2038.71	581
2039.04	593
2039.36	584
2039.69	573
2040.02	572
2040.35	575
2040.68	567
2041.01	559
2041.34	562
2041.66	559
2041.99	556
2042.32	541
2042.65	544
2042.98	545
2043.31	540
2043.63	529
2043.96	524
2044.29	528
2044.62	525
2044.95	517
2045.28	515
2045.6	515
2045.93	506
2046.26	496
2046.59	503
2046.92	498
2047.24	493
2047.57	483
2047.9	481
2048.23	484
2048.56	476
2048.88	473
2049.21	470
2049.54	467
2049.87	461
2050.2	461
2050.52	463
2050.85	461
2051.18	451
2051.51	449
2051.83	450
2052.16	445
2052.49	445
2052.82	442
2053.15	443
2053.47	434
2053.8	434
2054.13	435
2054.46	435
2054.78	431
2055.11	424
2055.44	425
2055.77	424
2056.09	420
2056.42	424
2056.75	422
2057.08	421
2057.4	417
2057.73	413
2058.06	418
2058.38	415
2058.71	410
2059.04	406
2059.37	406
2059.69	407
2060.02	405
2060.35	405
2060.67	400
2061	399
2061.33	397
2061.66	397
2061.98	401
2062.31	396
2062.64	390
2062.96	392
2063.29	394
2063.62	392
2063.94	394
2064.27	386
2064.6	385
2064.92	385
2065.25	380
2065.58	385
2065.91	383
2066.23	380
2066.56	380
2066.89	379
2067.21	379
2067.54	379
2067.87	373
2068.19	381
2068.52	374
2068.84	369
2069.17	371
2069.5	374
2069.82	364
2070.15	359
2070.48	361
2070.8	367
2071.13	364
2071.46	364
2071.78	357
2072.11	352
2072.43	346
2072.76	354
2073.09	358
2073.41	346
2073.74	342
2074.07	342
2074.39	351
2074.72	343
2075.04	346
2075.37	341
2075.7	332
2076.02	336
2076.35	341
2076.67	341
2077	331
2077.33	328
2077.65	317
2077.98	326
2078.3	319
2078.63	316
2078.95	310
2079.28	314
2079.61	299
2079.93	310
2080.26	305
2080.58	306
2080.91	300
2081.23	297
2081.56	293
2081.89	292
2082.21	293
2082.54	292
2082.86	286
2083.19	284
2083.51	281
2083.84	283
2084.16	287
2084.49	278
2084.81	271
2085.14	275
2085.46	273
2085.79	271
2086.12	272
2086.44	269
2086.77	265
2087.09	261
2087.42	269
2087.74	268
2088.07	263
2088.39	260
2088.72	260
2089.04	260
2089.37	258
2089.69	259
2090.02	258
2090.34	256
2090.67	253
2090.99	253
2091.32	255
2091.64	243
2091.97	253
2092.29	251
2092.62	255
2092.94	254
2093.26	253
2093.59	252
2093.91	252
2094.24	253
2094.56	243
2094.89	254
2095.21	253
2095.54	253
2095.86	252
2096.19	250
2096.51	254
2096.84	253
2097.16	252
2097.48	253
2097.81	254
2098.13	256
2098.46	254
2098.78	255
2099.11	256
2099.43	257
2099.75	257
2100.08	255
2100.4	258
2100.73	258
2101.05	256
2101.38	257
2101.7	256
2102.02	258
2102.35	259
2102.67	258
2103	257
2103.32	257
2103.64	257
2103.97	255
2104.29	258
2104.62	260
2104.94	256
2105.26	256
2105.59	256
2105.91	255
2106.23	258
2106.56	256
2106.88	256
2107.21	256
2107.53	256
2107.85	255
2108.18	256
2108.5	254
2108.82	255
2109.15	255
2109.47	254
2109.79	252
2110.12	253
2110.44	252
2110.76	248
2111.09	248
2111.41	247
2111.73	251
2112.06	248
2112.38	246
2112.7	245
2113.03	245
2113.35	243
2113.67	245
2114	242
2114.32	238
2114.64	234
2114.97	237
2115.29	235
2115.61	230
2115.94	228
2116.26	226
2116.58	232
2116.91	229
2117.23	231
2117.55	220
2117.87	222
2118.2	222
2118.52	220
2118.84	221
2119.17	220
2119.49	215
2119.81	209
2120.13	213
2120.46	215
2120.78	212
2121.1	210
2121.42	204
2121.75	206
2122.07	210
2122.39	206
2122.72	205
2123.04	204
2123.36	201
2123.68	198
2124.01	201
2124.33	201
2124.65	198
2124.97	198
2125.29	195
2125.62	190
2125.94	192
2126.26	194
2126.58	190
2126.91	186
2127.23	188
2127.55	179
2127.87	185
2128.2	184
2128.52	182
2128.84	181
2129.16	178
2129.48	180
2129.81	182
2130.13	182
2130.45	178
2130.77	178
2131.09	180
2131.42	177
2131.74	178
2132.06	177
2132.38	177
2132.7	176
2133.02	177
2133.35	175
2133.67	177
2133.99	176
2134.31	176
2134.63	177
2134.96	172
2135.28	175
2135.6	176
2135.92	174
2136.24	174
2136.56	174
2136.88	174
2137.21	175
2137.53	175
2137.85	174
2138.17	174
2138.49	174
2138.81	173
2139.13	174
2139.46	174
2139.78	174
2140.1	171
2140.42	173
2140.74	174
2141.06	173
2141.38	173
2141.7	172
2142.03	171
2142.35	171
2142.67	171
2142.99	171
2143.31	168
2143.63	170
2143.95	169
2144.27	168
2144.59	169
2144.91	169
2145.24	167
2145.56	165
2145.88	166
2146.2	164
2146.52	165
2146.84	163
2147.16	162
2147.48	160
2147.8	161
2148.12	159
2148.44	160
2148.76	158
2149.08	158
2149.41	155
2149.73	157
2150.05	155
2150.37	154
2150.69	152
2151.01	153
2151.33	153
2151.65	152
2151.97	153
2152.29	150
2152.61	149
2152.93	149
2153.25	145
2153.57	148
2153.89	147
2154.21	147
2154.53	144
2154.85	142
2155.17	145
2155.49	143
2155.81	143
2156.13	141
2156.45	140
2156.77	140
2157.09	140
2157.41	139
2157.73	139
2158.05	138
2158.37	138
2158.69	137
2159.01	138
2159.33	136
2159.65	136
2159.97	135
2160.29	134
2160.61	136
2160.93	135
2161.25	132
2161.57	132
2161.89	132
2162.21	133
2162.53	133
2162.85	130
2163.17	133
2163.49	129
2163.81	131
2164.13	129
2164.45	130
2164.77	130
2165.08	126
2165.4	128
2165.72	127
2166.04	128
2166.36	127
2166.68	127
2167	128
2167.32	127
2167.64	127
2167.96	126
2168.28	127
2168.6	125
2168.92	125
2169.24	126
2169.55	124
2169.87	125
2170.19	125
2170.51	124
2170.83	123
2171.15	124
2171.47	123
2171.79	122
2172.11	122
2172.43	122
2172.74	120
2173.06	120
2173.38	120
2173.7	120
2174.02	121
2174.34	119
2174.66	120
2174.98	119
2175.29	119
2175.61	119
2175.93	118
2176.25	117
2176.57	117
2176.89	116
2177.21	118
2177.52	117
2177.84	116
2178.16	116
2178.48	114
2178.8	115
2179.12	114
2179.43	113
2179.75	113
2180.07	115
2180.39	109
2180.71	112
2181.03	113
2181.34	113
2181.66	112
2181.98	111
2182.3	110
2182.62	111
2182.93	110
2183.25	111
2183.57	108
2183.89	110
2184.21	109
2184.52	108
2184.84	109
2185.16	108
2185.48	108
2185.8	108
2186.11	108
2186.43	107
2186.75	108
2187.07	107
2187.39	106
2187.7	103
2188.02	102
2188.34	108
2188.66	101
2188.97	107
2189.29	105
2189.61	105
2189.93	105
2190.24	105
2190.56	105
2190.88	105
2191.2	103
2191.51	103
2191.83	102
2192.15	103
2192.47	102
2192.78	103
2193.1	101
2193.42	102
2193.74	101
2194.05	101
2194.37	101
2194.69	102
2195	99
2195.32	99
2195.64	99
2195.96	100
2196.27	101
2196.59	100
2196.91	100
2197.22	96
2197.54	98
2197.86	98
2198.18	95
2198.49	97
2198.81	98
2199.13	98
2199.44	95
2199.76	96
2200.08	98
2200.39	97
2200.71	95
2201.03	94
2201.34	95
2201.66	94
2201.98	95
2202.29	94
2202.61	93
2202.93	95
2203.24	93
2203.56	94
2203.88	92
2204.19	91
2204.51	93
2204.83	90
2205.14	90
2205.46	92
2205.78	91
2206.09	91
2206.41	91
2206.72	90
2207.04	90
2207.36	90
2207.67	89
2207.99	88
2208.31	90
2208.62	89
2208.94	90
2209.25	89
2209.57	88
2209.89	90
2210.2	87
2210.52	88
2210.83	89
2211.15	88
2211.47	87
2211.78	89
2212.1	88
2212.41	87
2212.73	85
2213.05	88
2213.36	87
2213.68	87
2213.99	86
2214.31	86
2214.62	86
2214.94	86
2215.26	85
2215.57	87
2215.89	85
2216.2	85
2216.52	85
2216.83	86
2217.15	85
2217.46	84
2217.78	86
2218.1	84
2218.41	85
2218.73	83
2219.04	85
2219.36	84
2219.67	85
2219.99	84
2220.3	84
2220.62	84
2220.93	83
2221.25	85
2221.56	85
2221.88	86
2222.19	84
2222.51	83
2222.82	83
2223.14	84
2223.45	76
2223.77	83
2224.08	82
2224.4	82
2224.71	82
2225.03	82
2225.34	82
2225.66	84
2225.97	83
2226.29	75
2226.6	80
2226.92	83
2227.23	81
2227.55	80
2227.86	81
2228.18	81
2228.49	80
2228.81	81
2229.12	80
2229.44	78
2229.75	81
2230.07	80
2230.38	80
2230.69	78
2231.01	77
2231.32	79
2231.64	79
2231.95	77
2232.27	78
2232.58	79
2232.9	77
2233.21	78
2233.52	78
2233.84	78
2234.15	78
2234.47	78
2234.78	78
2235.1	79
2235.41	78
2235.72	78
2236.04	76
2236.35	78
2236.67	78
2236.98	77
2237.29	74
2237.61	76
2237.92	78
2238.24	75
2238.55	78
2238.86	76
2239.18	77
2239.49	77
2239.8	76
2240.12	71
2240.43	75
2240.75	75
2241.06	75
2241.37	75
2241.69	76
2242	74
2242.31	78
2242.63	74
2242.94	76
2243.26	74
2243.57	73
2243.88	71
2244.2	75
2244.51	75
2244.82	74
2245.14	74
2245.45	73
2245.76	74
2246.08	73
2246.39	73
2246.7	74
2247.02	72
2247.33	72
2247.64	72
2247.96	74
2248.27	73
2248.58	72
2248.9	73
2249.21	67
2249.52	72
2249.83	72
2250.15	71
2250.46	73
2250.77	71
2251.09	71
2251.4	70
2251.71	70
2252.03	70
2252.34	72
2252.65	73
2252.96	72
2253.28	71
2253.59	70
2253.9	70
2254.21	71
2254.53	70
2254.84	71
2255.15	70
2255.47	68
2255.78	71
2256.09	69
2256.4	69
2256.72	69
2257.03	71
2257.34	68
2257.65	70
2257.97	68
2258.28	69
2258.59	68
2258.9	69
2259.22	69
2259.53	68
2259.84	67
2260.15	68
2260.46	69
2260.78	67
2261.09	68
2261.4	67
2261.71	68
2262.03	67
2262.34	67
2262.65	65
2262.96	67
2263.27	67
2263.59	68
2263.9	67
2264.21	67
2264.52	66
2264.83	66
2265.15	66
2265.46	67
2265.77	66
2266.08	65
2266.39	64
2266.7	65
2267.02	64
2267.33	66
2267.64	64
2267.95	62
2268.26	65
2268.57	66
2268.89	65
2269.2	65
2269.51	65
2269.82	65
2270.13	65
2270.44	64
2270.76	64
2271.07	64
2271.38	61
2271.69	64
2272	61
2272.31	64
2272.62	65
2272.93	64
2273.25	61
2273.56	65
2273.87	64
2274.18	64
2274.49	62
2274.8	63
2275.11	63
2275.42	62
2275.74	63
2276.05	63
2276.36	63
2276.67	63
2276.98	63
2277.29	63
2277.6	64
2277.91	63
2278.22	64
2278.53	61
2278.85	59
2279.16	63
2279.47	63
2279.78	56
2280.09	63
2280.4	61
2280.71	63
2281.02	61
2281.33	62
2281.64	61
2281.95	61
2282.26	60
2282.57	59
2282.88	61
2283.19	63
2283.5	61
2283.82	60
2284.13	60
2284.44	61
2284.75	61
2285.06	62
2285.37	58
2285.68	60
2285.99	59
2286.3	59
2286.61	59
2286.92	58
2287.23	60
2287.54	59
2287.85	60
2288.16	61
2288.47	60
2288.78	60
2289.09	59
2289.4	59
2289.71	59
2290.02	58
2290.33	60
2290.64	59
2290.95	58
2291.26	58
2291.57	57
2291.88	59
2292.19	61
2292.5	57
2292.81	57
2293.12	0
2293.43	0
2293.74	0
2294.05	0
2294.36	0
2294.67	0
2294.98	0
2295.29	0
2295.6	0
2295.91	0
2296.21	0
2296.52	0
2296.83	0
2297.14	0
2297.45	0
2297.76	0
2298.07	0
2298.38	0
2298.69	0
2299	0
2299.31	0
2299.62	0
2299.93	0
2300.24	0
2300.55	0
2300.85	0
2301.16	0
2301.47	0
2301.78	0
2302.09	0
2302.4	0
2302.71	0
2303.02	0
2303.33	0
2303.64	0
2303.94	0
2304.25	0
2304.56	0
2304.87	0
2305.18	0
2305.49	0
2305.8	0
2306.11	0
2306.42	0
2306.72	0
2307.03	0
2307.34	0
2307.65	0
2307.96	0
2308.27	0
2308.58	0
2308.88	0
2309.19	0
2309.5	0
2309.81	0
2310.12	0
2310.43	0
2310.74	0
2311.04	0
2311.35	0
2311.66	0
2311.97	0
2312.28	0
2312.59	0
2312.89	0
2313.2	0
2313.51	0
2313.82	0
2314.13	0
2314.43	0
2314.74	0
2315.05	0
2315.36	0
2315.67	0
2315.97	0
2316.28	0
2316.59	0
2316.9	0
2317.21	0
2317.51	0
2317.82	0
2318.13	0
2318.44	0
2318.75	0
2319.05	0
2319.36	0
2319.67	0
2319.98	0
2320.28	0
2320.59	0
2320.9	0
2321.21	0
2321.51	0
2321.82	0
2322.13	0
2322.44	0
2322.74	0
2323.05	0
2323.36	0
2323.67	0
2323.97	0
2324.28	0
2324.59	0
2324.9	0
2325.2	0
2325.51	0
2325.82	0
2326.13	0
2326.43	0
2326.74	0
2327.05	0
2327.35	0
2327.66	0
2327.97	0
2328.27	0
2328.58	0
2328.89	0
2329.2	0
2329.5	0
2329.81	0
2330.12	0
2330.42	0
2330.73	0
2331.04	0
2331.34	0
2331.65	0
2331.96	0
2332.26	0
2332.57	0
2332.88	0
2333.18	0
2333.49	0
2333.8	0
2334.1	0
2334.41	0
2334.72	0
2335.02	0
2335.33	0
2335.64	0
2335.94	0
2336.25	0
2336.56	0
2336.86	0
2337.17	0
2337.48	0
2337.78	0
2338.09	0
2338.39	0
2338.7	0
2339.01	0
2339.31	0
2339.62	0
2339.93	0
2340.23	0
2340.54	0
2340.84	0
2341.15	0
2341.46	0
2341.76	0
2342.07	0
2342.37	0
2342.68	0
2342.99	0
2343.29	0
2343.6	0
2343.9	0
2344.21	0
2344.51	0
2344.82	0
2345.13	0
2345.43	0
2345.74	0
2346.04	0
2346.35	0
2346.65	0
2346.96	0
2347.27	0
2347.57	0
2347.88	0
2348.18	0
2348.49	0
2348.79	0
2349.1	0
2349.4	0
2349.71	0
2350.01	0
2350.32	0
2350.63	0
2350.93	0
2351.24	0
2351.54	0
2351.85	0
2352.15	0
2352.46	0
2352.76	0
2353.07	0
2353.37	0
2353.68	0
2353.98	0
2354.29	0
2354.59	0
2354.9	0
2355.2	0
2355.51	0
2355.81	0
2356.12	0
2356.42	0
2356.73	0
2357.03	0
2357.34	0
2357.64	0
2357.95	0
2358.25	0
2358.55	0
2358.86	0
2359.16	0
2359.47	0
2359.77	0
2360.08	0
2360.38	0
2360.69	0
2360.99	0
2361.3	0
2361.6	0
2361.9	0
2362.21	0
2362.51	0
2362.82	0
2363.12	0
2363.43	0
2363.73	0
2364.04	0
2364.34	0
2364.64	0
2364.95	0
2365.25	0
2365.56	0
2365.86	0
2366.16	0
2366.47	0
2366.77	0
2367.08	0
2367.38	0
2367.68	0
2367.99	0
2368.29	0
2368.6	0
2368.9	0
2369.2	0
2369.51	0
2369.81	0
2370.12	0
2370.42	0
2370.72	0
2371.03	0
2371.33	0
2371.63	0
2371.94	0
2372.24	0
2372.55	0
2372.85	0
2373.15	0
2373.46	0
2373.76	0
2374.06	0
2374.37	0
2374.67	0
2374.97	0
2375.28	0
2375.58	0
2375.88	0
2376.19	0
2376.49	0
2376.79	0
2377.1	0
2377.4	0
2377.7	0
2378.01	0
2378.31	0
2378.61	0
2378.92	0
2379.22	0
2379.52	0
2379.82	0
2380.13	0
2380.43	0
2380.73	0
2381.04	0
2381.34	0
2381.64	0
2381.95	0
2382.25	0
2382.55	0
2382.85	0
2383.16	0
2383.46	0
2383.76	0
2384.06	0
2384.37	0
2384.67	0
2384.97	0
2385.28	0
2385.58	0
2385.88	0
2386.18	0
2386.49	0
2386.79	0
2387.09	0
2387.39	0
2387.69	0
2388	0
2388.3	0
2388.6	0
2388.9	0
2389.21	0
2389.51	0
2389.81	0
2390.11	0
2390.42	0
2390.72	0
2391.02	0
2391.32	0
2391.62	0
2391.93	0
2392.23	0
2392.53	0
2392.83	0
2393.13	0
2393.44	0
2393.74	0
2394.04	0
2394.34	0
2394.64	0
2394.95	0
2395.25	0
2395.55	0
2395.85	0
2396.15	0
2396.45	0
2396.76	0
2397.06	0
2397.36	0
2397.66	0
2397.96	0
2398.26	0
2398.57	0
2398.87	0
2399.17	0
2399.47	0
2399.77	0
2400.07	0
2400.37	0
2400.68	0
2400.98	0
2401.28	0
2401.58	0
2401.88	0
2402.18	0
2402.48	0
2402.79	0
2403.09	0
2403.39	0
2403.69	0
2403.99	0
2404.29	0
2404.59	0
2404.89	0
2405.19	0
2405.5	0
2405.8	0
2406.1	0
2406.4	0
2406.7	0
2407	0
2407.3	0
2407.6	0
2407.9	0
2408.2	0
2408.5	0
2408.8	0
2409.11	0
2409.41	0
2409.71	0
2410.01	0
2410.31	0
2410.61	0
2410.91	0
2411.21	0
2411.51	0
2411.81	0
2412.11	0
2412.41	0
2412.71	0
2413.01	0
2413.31	0
2413.61	0
2413.91	0
2414.21	0
2414.51	0
2414.81	0
2415.12	0
2415.42	0
2415.72	0
2416.02	0
2416.32	0
2416.62	0
2416.92	0
2417.22	0
2417.52	0
2417.82	0
2418.12	0
2418.42	0
2418.72	0
2419.02	0
2419.32	0
2419.62	0
2419.92	0
2420.22	0
2420.52	0
2420.82	0
2421.12	0
2421.42	0
2421.71	0
2422.01	0
2422.31	0
2422.61	0
2422.91	0
2423.21	0
2423.51	0
2423.81	0
2424.11	0
2424.41	0
2424.71	0
2425.01	0
2425.31	0
2425.61	0
2425.91	0
2426.21	0
2426.51	0
2426.81	0
2427.11	0
2427.41	0
2427.7	0
2428	0
2428.3	0
2428.6	0
2428.9	0
2429.2	0
2429.5	0
2429.8	0
2430.1	0
2430.4	0
2430.7	0
2430.99	0
2431.29	0
2431.59	0
2431.89	0
2432.19	0
2432.49	0
2432.79	0
2433.09	0
2433.39	0
2433.68	0
2433.98	0
2434.28	0
2434.58	0
2434.88	0
2435.18	0
2435.48	0
2435.78	0
2436.07	0
2436.37	0
2436.67	0
2436.97	0
2437.27	0
2437.57	0
2437.86	0
2438.16	0
2438.46	0
2438.76	0
2439.06	0
2439.36	0
2439.66	0
2439.95	0
2440.25	0
2440.55	0
2440.85	0
2441.15	0
2441.44	0
2441.74	0
2442.04	0
2442.34	0
2442.64	0
2442.93	0
2443.23	0
2443.53	0
2443.83	0
2444.13	0
2444.42	0
2444.72	0
2445.02	0
2445.32	0
2445.62	0
2445.91	0
2446.21	0
2446.51	0
2446.81	0
2447.1	0
2447.4	0
2447.7	0
2448	0
2448.3	0
2448.59	0
2448.89	0
2449.19	0
2449.49	0
2449.78	0
2450.08	0
2450.38	0
2450.68	0
2450.97	0
2451.27	0
2451.57	0
2451.87	0
2452.16	0
2452.46	0
2452.76	0
2453.05	0
2453.35	0
2453.65	0
2453.95	0
2454.24	0
2454.54	0
2454.84	0
2455.13	0
2455.43	0
2455.73	0
2456.03	0
2456.32	0
2456.62	0
2456.92	0
2457.21	0
2457.51	0
2457.81	0
2458.1	0
2458.4	0
2458.7	0
2458.99	0
2459.29	0
2459.59	0
2459.88	0
2460.18	0
2460.48	0
2460.77	0
2461.07	0
2461.37	0
2461.66	0
2461.96	0
2462.26	0
2462.55	0
2462.85	0
2463.15	0
2463.44	0
2463.74	0
2464.04	0
2464.33	0
2464.63	0
2464.92	0
2465.22	0
2465.52	0
2465.81	0
2466.11	0
2466.41	0
2466.7	0
2467	0
2467.29	0
2467.59	0
2467.89	0
2468.18	0
2468.48	0
2468.77	0
2469.07	0
2469.37	0
2469.66	0
2469.96	0
2470.25	0
2470.55	0
2470.84	0
2471.14	0
2471.44	0
2471.73	0
2472.03	0
2472.32	0
2472.62	0
2472.91	0
2473.21	0
2473.51	0
2473.8	0
2474.1	0
2474.39	0
2474.69	0
2474.98	0
2475.28	0
2475.57	0
2475.87	0
2476.17	0
2476.46	0
2476.76	0
2477.05	0
2477.35	0
2477.64	0
2477.94	0
2478.23	0
2478.53	0
2478.82	0
2479.12	0
2479.41	0
2479.71	0
2480	0
2480.3	0
2480.59	0
2480.89	0
2481.18	0
2481.48	0
2481.77	0
2482.07	0
2482.36	0
2482.66	0
2482.95	0
2483.25	0
2483.54	0
2483.84	0
2484.13	0
2484.43	0
2484.72	0
2485.02	0
2485.31	0
2485.6	0
2485.9	0
2486.19	0
2486.49	0
2486.78	0
2487.08	0
2487.37	0
2487.67	0
2487.96	0
2488.26	0
2488.55	0
2488.84	0
2489.14	0
2489.43	0
2489.73	0
2490.02	0
2490.32	0
2490.61	0
2490.9	0
2491.2	0
2491.49	0
2491.79	0
2492.08	0
2492.37	0
2492.67	0
2492.96	0
2493.26	0
2493.55	0
2493.84	0
2494.14	0
2494.43	0
2494.73	0
2495.02	0
2495.31	0
2495.61	0
2495.9	0
2496.2	0
2496.49	0
2496.78	0
2497.08	0
2497.37	0
2497.66	0
2497.96	0
2498.25	0
2498.54	0
2498.84	0
2499.13	0
2499.43	0
2499.72	0
2500.01	0
2500.31	0
2500.6	0
2500.89	0
2501.19	0
2501.48	0
2501.77	0
2502.07	0
2502.36	0
2502.65	0
2502.95	0
2503.24	0
2503.53	0
2503.82	0
2504.12	0
2504.41	0
2504.7	0
2505	0
2505.29	0
2505.58	0
2505.88	0
2506.17	0
2506.46	0
2506.76	0
2507.05	0
2507.34	0
2507.63	0
2507.93	0
2508.22	0
2508.51	0
2508.8	0
2509.1	0
2509.39	0
2509.68	0
2509.98	0
2510.27	0
2510.56	0
2510.85	0
2511.15	0
2511.44	0
2511.73	0
2512.02	0
2512.32	0
2512.61	0
2512.9	0
2513.19	0
2513.49	0
2513.78	0
2514.07	0
2514.36	0
2514.65	0
2514.95	0
2515.24	0
2515.53	0
2515.82	0
2516.12	0
2516.41	0
2516.7	0
2516.99	0
2517.28	0
2517.58	0
2517.87	0
2518.16	0
2518.45	0
2518.74	0
2519.04	0
2519.33	0
2519.62	0
2519.91	0
2520.2	0
2520.5	0
2520.79	0
2521.08	0
2521.37	0
2521.66	0
2521.95	0
2522.25	0
2522.54	0
2522.83	0
2523.12	0
2523.41	0
2523.7	0
2523.99	0
2524.29	0
2524.58	0
2524.87	0
2525.16	0
2525.45	0
2525.74	0
2526.03	0
2526.33	0
2526.62	0
2526.91	0
2527.2	0
2527.49	0
2527.78	0
2528.07	0
2528.36	0
2528.66	0
2528.95	0
2529.24	0
2529.53	0
2529.82	0
2530.11	0
2530.4	0
2530.69	0
2530.98	0
2531.27	0
2531.57	0
2531.86	0
2532.15	0
2532.44	0
2532.73	0
2533.02	0
2533.31	0
2533.6	0
2533.89	0
2534.18	0
2534.47	0
2534.76	0
2535.05	0
2535.35	0
2535.64	0
2535.93	0
2536.22	0
2536.51	0
2536.8	0
2537.09	0
2537.38	0
2537.67	0
2537.96	0
2538.25	0
2538.54	0
2538.83	0
2539.12	0
2539.41	0
2539.7	0
2539.99	0
2540.28	0
2540.57	0
2540.86	0
2541.15	0
2541.44	0
2541.73	0
2542.02	0
2542.31	0
2542.6	0
2542.89	0
2543.18	0
2543.47	0
2543.76	0
2544.05	0
2544.34	0
2544.63	0
2544.92	0
2545.21	0
2545.5	0
2545.79	0
2546.08	0
2546.37	0
2546.66	0
2546.95	0
2547.24	0
2547.53	0
2547.82	0
2548.11	0
2548.4	0
2548.69	0
2548.98	0
2549.27	0
2549.55	0
2549.84	0
2550.13	0
2550.42	0
2550.71	0
2551	0
2551.29	0
2551.58	0
2551.87	0
2552.16	0
2552.45	0
2552.74	0
2553.03	0
2553.31	0
2553.6	0
2553.89	0
2554.18	0
2554.47	0
2554.76	0
2555.05	0
2555.34	0
2555.63	0
2555.92	0
2556.2	0
2556.49	0
2556.78	0
2557.07	0
2557.36	0
2557.65	0
2557.94	0
2558.23	0
2558.51	0
2558.8	0
2559.09	0
2559.38	0
2559.67	0
2559.96	0
2560.25	0
2560.53	0
2560.82	0
2561.11	0
2561.4	0
2561.69	0
2561.98	0
2562.27	0
2562.55	0
2562.84	0
2563.13	0
2563.42	0
2563.71	0
2564	0
2564.28	0
2564.57	0
2564.86	0
2565.15	0
2565.44	0
2565.72	0
2566.01	0
2566.3	0
2566.59	0
2566.88	0
2567.16	0
2567.45	0
2567.74	0
2568.03	0
2568.32	0
2568.6	0
2568.89	0
2569.18	0
2569.47	0
2569.75	0

