Source: Spectrum Viewer

Chart: Pulse Spectrum

Series: 
Wavelength (nm)	S (a.u.)
1179.9	0
1180.29	0
1180.68	0
1181.06	0
1181.45	0
1181.83	0
1182.22	0
1182.6	0
1182.99	0
1183.38	0
1183.76	0
1184.15	0
1184.53	0
1184.92	0
1185.3	0
1185.69	0
1186.07	0
1186.46	0
1186.85	0
1187.23	0
1187.62	0
1188	0
1188.39	0
1188.77	0
1189.16	0
1189.54	0
1189.93	0
1190.31	0
1190.7	0
1191.08	0
1191.47	0
1191.85	0
1192.24	0
1192.62	0
1193.01	0
1193.39	0
1193.78	0
1194.16	0
1194.55	0
1194.93	0
1195.32	0
1195.7	0
1196.09	0
1196.47	0
1196.86	0
1197.24	0
1197.63	0
1198.01	0
1198.4	0
1198.78	0
1199.16	0
1199.55	0
1199.93	0
1200.32	0
1200.7	0
1201.09	0
1201.47	0
1201.86	0
1202.24	0
1202.63	0
1203.01	0
1203.39	0
1203.78	0
1204.16	0
1204.55	0
1204.93	0
1205.32	0
1205.7	0
1206.08	0
1206.47	0
1206.85	0
1207.24	0
1207.62	0
1208	0
1208.39	0
1208.77	0
1209.16	0
1209.54	0
1209.92	0
1210.31	0
1210.69	0
1211.08	0
1211.46	0
1211.84	0
1212.23	0
1212.61	0
1213	0
1213.38	0
1213.76	0
1214.15	0
1214.53	0
1214.91	0
1215.3	0
1215.68	0
1216.06	0
1216.45	0
1216.83	0
1217.22	0
1217.6	0
1217.98	0
1218.37	0
1218.75	0
1219.13	0
1219.52	0
1219.9	0
1220.28	0
1220.67	0
1221.05	0
1221.43	0
1221.82	0
1222.2	0
1222.58	0
1222.97	0
1223.35	0
1223.73	0
1224.11	0
1224.5	0
1224.88	0
1225.26	0
1225.65	0
1226.03	0
1226.41	0
1226.8	0
1227.18	0
1227.56	0
1227.94	0
1228.33	0
1228.71	0
1229.09	0
1229.47	0
1229.86	0
1230.24	0
1230.62	0
1231.01	0
1231.39	0
1231.77	0
1232.15	0
1232.54	0
1232.92	0
1233.3	0
1233.68	0
1234.07	0
1234.45	0
1234.83	0
1235.21	0
1235.6	0
1235.98	0
1236.36	0
1236.74	0
1237.12	0
1237.51	0
1237.89	0
1238.27	0
1238.65	0
1239.04	0
1239.42	0
1239.8	0
1240.18	0
1240.56	0
1240.95	0
1241.33	0
1241.71	0
1242.09	0
1242.47	0
1242.86	0
1243.24	0
1243.62	0
1244	0
1244.38	0
1244.77	0
1245.15	0
1245.53	0
1245.91	0
1246.29	0
1246.67	0
1247.06	0
1247.44	0
1247.82	0
1248.2	0
1248.58	0
1248.96	0
1249.34	0
1249.73	0
1250.11	0
1250.49	0
1250.87	0
1251.25	0
1251.63	0
1252.01	0
1252.4	0
1252.78	0
1253.16	0
1253.54	0
1253.92	0
1254.3	0
1254.68	0
1255.06	0
1255.45	0
1255.83	0
1256.21	0
1256.59	0
1256.97	0
1257.35	0
1257.73	0
1258.11	0
1258.49	0
1258.87	0
1259.26	0
1259.64	0
1260.02	0
1260.4	0
1260.78	0
1261.16	0
1261.54	0
1261.92	0
1262.3	0
1262.68	0
1263.06	0
1263.44	0
1263.82	0
1264.21	0
1264.59	0
1264.97	0
1265.35	0
1265.73	0
1266.11	0
1266.49	0
1266.87	0
1267.25	0
1267.63	0
1268.01	0
1268.39	0
1268.77	0
1269.15	0
1269.53	0
1269.91	0
1270.29	0
1270.67	0
1271.05	0
1271.43	0
1271.81	0
1272.19	0
1272.57	0
1272.95	0
1273.33	0
1273.71	0
1274.09	0
1274.47	0
1274.85	0
1275.23	0
1275.61	0
1275.99	0
1276.37	0
1276.75	0
1277.13	0
1277.51	0
1277.89	0
1278.27	0
1278.65	0
1279.03	0
1279.41	0
1279.79	0
1280.17	0
1280.55	0
1280.93	0
1281.31	0
1281.69	0
1282.07	0
1282.45	0
1282.82	0
1283.2	0
1283.58	0
1283.96	0
1284.34	0
1284.72	0
1285.1	0
1285.48	0
1285.86	0
1286.24	0
1286.62	0
1287	0
1287.38	0
1287.75	0
1288.13	0
1288.51	0
1288.89	0
1289.27	0
1289.65	0
1290.03	0
1290.41	0
1290.79	0
1291.17	0
1291.54	0
1291.92	0
1292.3	0
1292.68	0
1293.06	0
1293.44	0
1293.82	0
1294.2	0
1294.57	0
1294.95	0
1295.33	0
1295.71	0
1296.09	0
1296.47	0
1296.85	0
1297.22	0
1297.6	0
1297.98	0
1298.36	0
1298.74	0
1299.12	0
1299.5	0
1299.87	0
1300.25	0
1300.63	0
1301.01	0
1301.39	0
1301.77	0
1302.14	0
1302.52	0
1302.9	0
1303.28	0
1303.66	0
1304.03	0
1304.41	0
1304.79	0
1305.17	0
1305.55	0
1305.92	0
1306.3	0
1306.68	0
1307.06	0
1307.44	0
1307.81	0
1308.19	0
1308.57	0
1308.95	0
1309.32	0
1309.7	0
1310.08	0
1310.46	0
1310.84	0
1311.21	0
1311.59	0
1311.97	0
1312.35	0
1312.72	0
1313.1	0
1313.48	0
1313.86	0
1314.23	0
1314.61	0
1314.99	0
1315.37	0
1315.74	0
1316.12	0
1316.5	0
1316.87	0
1317.25	0
1317.63	0
1318.01	0
1318.38	0
1318.76	0
1319.14	0
1319.52	0
1319.89	0
1320.27	0
1320.65	0
1321.02	0
1321.4	0
1321.78	0
1322.15	0
1322.53	0
1322.91	0
1323.29	0
1323.66	0
1324.04	0
1324.42	0
1324.79	0
1325.17	0
1325.55	0
1325.92	0
1326.3	0
1326.68	0
1327.05	0
1327.43	0
1327.81	0
1328.18	0
1328.56	0
1328.94	0
1329.31	0
1329.69	0
1330.06	0
1330.44	0
1330.82	0
1331.19	0
1331.57	0
1331.95	0
1332.32	0
1332.7	0
1333.08	0
1333.45	0
1333.83	0
1334.2	0
1334.58	0
1334.96	0
1335.33	0
1335.71	0
1336.08	0
1336.46	0
1336.84	0
1337.21	0
1337.59	0
1337.96	0
1338.34	0
1338.72	0
1339.09	0
1339.47	0
1339.84	0
1340.22	0
1340.6	0
1340.97	0
1341.35	0
1341.72	0
1342.1	0
1342.47	0
1342.85	0
1343.23	0
1343.6	0
1343.98	0
1344.35	0
1344.73	0
1345.1	0
1345.48	0
1345.85	0
1346.23	0
1346.61	0
1346.98	0
1347.36	0
1347.73	0
1348.11	0
1348.48	0
1348.86	0
1349.23	0
1349.61	0
1349.98	0
1350.36	0
1350.73	0
1351.11	0
1351.48	0
1351.86	0
1352.23	0
1352.61	0
1352.98	0
1353.36	0
1353.73	0
1354.11	0
1354.48	0
1354.86	0
1355.23	0
1355.61	0
1355.98	0
1356.36	0
1356.73	0
1357.11	0
1357.48	0
1357.86	0
1358.23	0
1358.61	0
1358.98	0
1359.35	0
1359.73	0
1360.1	0
1360.48	0
1360.85	0
1361.23	0
1361.6	0
1361.98	0
1362.35	0
1362.72	0
1363.1	0
1363.47	0
1363.85	0
1364.22	0
1364.6	0
1364.97	0
1365.34	0
1365.72	0
1366.09	0
1366.47	0
1366.84	0
1367.22	0
1367.59	0
1367.96	0
1368.34	0
1368.71	0
1369.09	0
1369.46	0
1369.83	54
1370.21	49
1370.58	53
1370.96	54
1371.33	55
1371.7	54
1372.08	53
1372.45	54
1372.82	54
1373.2	53
1373.57	53
1373.95	53
1374.32	54
1374.69	56
1375.07	53
1375.44	53
1375.81	53
1376.19	54
1376.56	53
1376.93	53
1377.31	54
1377.68	54
1378.05	55
1378.43	55
1378.8	56
1379.17	55
1379.55	55
1379.92	54
1380.29	54
1380.67	55
1381.04	55
1381.41	54
1381.79	55
1382.16	54
1382.53	56
1382.91	55
1383.28	56
1383.65	50
1384.03	56
1384.4	56
1384.77	56
1385.14	56
1385.52	56
1385.89	55
1386.26	56
1386.64	55
1387.01	54
1387.38	55
1387.75	56
1388.13	56
1388.5	56
1388.87	54
1389.25	55
1389.62	58
1389.99	56
1390.36	55
1390.74	56
1391.11	56
1391.48	57
1391.85	55
1392.23	57
1392.6	55
1392.97	56
1393.34	56
1393.72	56
1394.09	57
1394.46	56
1394.83	57
1395.21	57
1395.58	55
1395.95	55
1396.32	58
1396.69	57
1397.07	55
1397.44	57
1397.81	56
1398.18	56
1398.55	57
1398.93	57
1399.3	59
1399.67	58
1400.04	58
1400.41	58
1400.79	58
1401.16	58
1401.53	59
1401.9	58
1402.27	57
1402.65	58
1403.02	59
1403.39	58
1403.76	58
1404.13	58
1404.51	55
1404.88	57
1405.25	59
1405.62	59
1405.99	58
1406.36	58
1406.74	61
1407.11	60
1407.48	61
1407.85	59
1408.22	57
1408.59	55
1408.96	59
1409.34	58
1409.71	60
1410.08	60
1410.45	59
1410.82	61
1411.19	58
1411.56	60
1411.93	59
1412.31	59
1412.68	59
1413.05	61
1413.42	61
1413.79	61
1414.16	60
1414.53	60
1414.9	61
1415.27	59
1415.65	59
1416.02	59
1416.39	59
1416.76	62
1417.13	60
1417.5	60
1417.87	63
1418.24	62
1418.61	62
1418.98	61
1419.35	61
1419.73	62
1420.1	62
1420.47	63
1420.84	61
1421.21	61
1421.58	63
1421.95	63
1422.32	63
1422.69	62
1423.06	62
1423.43	62
1423.8	61
1424.17	63
1424.54	62
1424.91	63
1425.28	63
1425.65	63
1426.02	62
1426.39	62
1426.76	62
1427.14	64
1427.51	58
1427.88	63
1428.25	65
1428.62	63
1428.99	62
1429.36	62
1429.73	63
1430.1	65
1430.47	64
1430.84	63
1431.21	64
1431.58	64
1431.95	62
1432.32	65
1432.69	65
1433.06	64
1433.43	64
1433.8	66
1434.17	64
1434.54	66
1434.91	65
1435.28	65
1435.64	66
1436.01	65
1436.38	65
1436.75	63
1437.12	66
1437.49	66
1437.86	67
1438.23	64
1438.6	66
1438.97	65
1439.34	66
1439.71	66
1440.08	66
1440.45	66
1440.82	68
1441.19	67
1441.56	64
1441.93	65
1442.3	67
1442.67	67
1443.03	66
1443.4	60
1443.77	69
1444.14	67
1444.51	67
1444.88	69
1445.25	68
1445.62	70
1445.99	69
1446.36	68
1446.73	66
1447.09	68
1447.46	69
1447.83	68
1448.2	69
1448.57	69
1448.94	68
1449.31	67
1449.68	67
1450.05	67
1450.41	71
1450.78	69
1451.15	69
1451.52	69
1451.89	71
1452.26	69
1452.63	71
1453	69
1453.36	70
1453.73	70
1454.1	71
1454.47	71
1454.84	70
1455.21	68
1455.57	70
1455.94	70
1456.31	69
1456.68	70
1457.05	71
1457.42	70
1457.78	72
1458.15	71
1458.52	70
1458.89	71
1459.26	72
1459.63	70
1459.99	72
1460.36	71
1460.73	71
1461.1	71
1461.47	71
1461.83	72
1462.2	72
1462.57	73
1462.94	71
1463.31	72
1463.67	72
1464.04	73
1464.41	73
1464.78	73
1465.15	71
1465.51	69
1465.88	72
1466.25	73
1466.62	70
1466.98	73
1467.35	72
1467.72	74
1468.09	72
1468.46	72
1468.82	72
1469.19	72
1469.56	73
1469.93	73
1470.29	75
1470.66	75
1471.03	73
1471.4	73
1471.76	74
1472.13	74
1472.5	74
1472.86	74
1473.23	74
1473.6	75
1473.97	75
1474.33	75
1474.7	73
1475.07	75
1475.44	75
1475.8	75
1476.17	74
1476.54	73
1476.9	76
1477.27	74
1477.64	75
1478	75
1478.37	76
1478.74	76
1479.11	75
1479.47	75
1479.84	76
1480.21	75
1480.57	75
1480.94	78
1481.31	77
1481.67	77
1482.04	76
1482.41	77
1482.77	76
1483.14	76
1483.51	77
1483.87	76
1484.24	77
1484.61	77
1484.97	77
1485.34	78
1485.71	78
1486.07	78
1486.44	73
1486.81	79
1487.17	77
1487.54	80
1487.9	79
1488.27	78
1488.64	79
1489	79
1489.37	77
1489.74	80
1490.1	79
1490.47	80
1490.83	80
1491.2	79
1491.57	80
1491.93	81
1492.3	81
1492.66	80
1493.03	80
1493.4	81
1493.76	82
1494.13	81
1494.49	82
1494.86	82
1495.23	82
1495.59	83
1495.96	83
1496.32	81
1496.69	75
1497.06	82
1497.42	83
1497.79	84
1498.15	81
1498.52	83
1498.88	83
1499.25	83
1499.62	85
1499.98	85
1500.35	83
1500.71	85
1501.08	84
1501.44	83
1501.81	85
1502.17	85
1502.54	87
1502.9	86
1503.27	88
1503.64	88
1504	90
1504.37	87
1504.73	89
1505.1	89
1505.46	88
1505.83	88
1506.19	89
1506.56	94
1506.92	94
1507.29	90
1507.65	90
1508.02	93
1508.38	93
1508.75	94
1509.11	92
1509.48	91
1509.84	92
1510.21	94
1510.57	95
1510.94	96
1511.3	96
1511.67	94
1512.03	98
1512.4	97
1512.76	96
1513.13	95
1513.49	98
1513.85	95
1514.22	100
1514.58	100
1514.95	101
1515.31	100
1515.68	103
1516.04	101
1516.41	102
1516.77	104
1517.14	106
1517.5	104
1517.86	102
1518.23	101
1518.59	109
1518.96	109
1519.32	106
1519.69	109
1520.05	102
1520.41	109
1520.78	111
1521.14	114
1521.51	113
1521.87	112
1522.24	111
1522.6	116
1522.96	112
1523.33	119
1523.69	112
1524.06	117
1524.42	114
1524.78	119
1525.15	120
1525.51	118
1525.88	118
1526.24	118
1526.6	122
1526.97	122
1527.33	123
1527.69	122
1528.06	123
1528.42	123
1528.79	126
1529.15	129
1529.51	127
1529.88	118
1530.24	121
1530.6	126
1530.97	128
1531.33	130
1531.69	127
1532.06	128
1532.42	127
1532.78	130
1533.15	132
1533.51	132
1533.87	133
1534.24	133
1534.6	135
1534.96	136
1535.33	139
1535.69	136
1536.05	137
1536.42	134
1536.78	137
1537.14	138
1537.51	141
1537.87	139
1538.23	136
1538.6	137
1538.96	141
1539.32	144
1539.68	142
1540.05	140
1540.41	142
1540.77	144
1541.14	145
1541.5	145
1541.86	145
1542.23	144
1542.59	144
1542.95	146
1543.31	149
1543.68	151
1544.04	146
1544.4	151
1544.76	149
1545.13	151
1545.49	154
1545.85	153
1546.21	154
1546.58	151
1546.94	147
1547.3	156
1547.66	154
1548.03	160
1548.39	156
1548.75	154
1549.11	156
1549.48	154
1549.84	162
1550.2	162
1550.56	161
1550.93	160
1551.29	162
1551.65	169
1552.01	170
1552.37	166
1552.74	166
1553.1	168
1553.46	173
1553.82	173
1554.18	173
1554.55	173
1554.91	173
1555.27	177
1555.63	180
1555.99	181
1556.36	180
1556.72	181
1557.08	180
1557.44	178
1557.8	185
1558.17	185
1558.53	185
1558.89	186
1559.25	188
1559.61	187
1559.97	190
1560.34	187
1560.7	190
1561.06	189
1561.42	192
1561.78	191
1562.14	195
1562.5	192
1562.87	195
1563.23	196
1563.59	196
1563.95	196
1564.31	197
1564.67	198
1565.03	198
1565.4	200
1565.76	199
1566.12	200
1566.48	201
1566.84	199
1567.2	201
1567.56	202
1567.92	202
1568.29	203
1568.65	202
1569.01	202
1569.37	199
1569.73	203
1570.09	199
1570.45	200
1570.81	201
1571.17	200
1571.53	202
1571.89	202
1572.26	201
1572.62	200
1572.98	200
1573.34	201
1573.7	201
1574.06	198
1574.42	198
1574.78	197
1575.14	200
1575.5	195
1575.86	198
1576.22	194
1576.58	189
1576.94	195
1577.3	197
1577.67	195
1578.03	194
1578.39	193
1578.75	194
1579.11	193
1579.47	193
1579.83	193
1580.19	193
1580.55	192
1580.91	192
1581.27	194
1581.63	195
1581.99	194
1582.35	193
1582.71	192
1583.07	195
1583.43	196
1583.79	195
1584.15	193
1584.51	194
1584.87	196
1585.23	196
1585.59	197
1585.95	198
1586.31	197
1586.67	198
1587.03	199
1587.39	202
1587.75	199
1588.11	200
1588.47	196
1588.83	199
1589.19	203
1589.55	205
1589.91	204
1590.27	200
1590.63	199
1590.99	203
1591.35	201
1591.71	207
1592.07	205
1592.42	206
1592.78	203
1593.14	209
1593.5	214
1593.86	210
1594.22	208
1594.58	206
1594.94	208
1595.3	211
1595.66	213
1596.02	214
1596.38	214
1596.74	216
1597.1	214
1597.46	214
1597.81	221
1598.17	217
1598.53	214
1598.89	210
1599.25	218
1599.61	221
1599.97	226
1600.33	216
1600.69	216
1601.05	217
1601.4	225
1601.76	224
1602.12	228
1602.48	220
1602.84	213
1603.2	212
1603.56	212
1603.92	219
1604.28	209
1604.63	209
1604.99	204
1605.35	209
1605.71	215
1606.07	221
1606.43	219
1606.79	220
1607.14	213
1607.5	218
1607.86	226
1608.22	223
1608.58	216
1608.94	207
1609.29	213
1609.65	213
1610.01	221
1610.37	217
1610.73	213
1611.09	202
1611.44	210
1611.8	214
1612.16	210
1612.52	211
1612.88	207
1613.24	207
1613.59	214
1613.95	216
1614.31	221
1614.67	211
1615.03	213
1615.38	208
1615.74	204
1616.1	207
1616.46	205
1616.82	202
1617.17	201
1617.53	218
1617.89	218
1618.25	226
1618.6	221
1618.96	218
1619.32	222
1619.68	215
1620.04	221
1620.39	224
1620.75	217
1621.11	198
1621.47	216
1621.82	211
1622.18	232
1622.54	220
1622.9	213
1623.25	205
1623.61	206
1623.97	218
1624.33	226
1624.68	212
1625.04	216
1625.4	216
1625.75	223
1626.11	227
1626.47	221
1626.83	219
1627.18	211
1627.54	199
1627.9	217
1628.26	223
1628.61	216
1628.97	199
1629.33	203
1629.68	216
1630.04	221
1630.4	221
1630.75	211
1631.11	202
1631.47	182
1631.83	192
1632.18	200
1632.54	204
1632.9	193
1633.25	191
1633.61	190
1633.97	200
1634.32	189
1634.68	187
1635.04	185
1635.39	176
1635.75	172
1636.11	177
1636.46	191
1636.82	193
1637.18	179
1637.53	166
1637.89	168
1638.25	185
1638.6	175
1638.96	168
1639.31	174
1639.67	173
1640.03	174
1640.38	174
1640.74	186
1641.1	159
1641.45	148
1641.81	144
1642.16	141
1642.52	142
1642.88	139
1643.23	135
1643.59	140
1643.95	139
1644.3	148
1644.66	140
1645.01	136
1645.37	130
1645.73	119
1646.08	141
1646.44	141
1646.79	132
1647.15	115
1647.51	117
1647.86	127
1648.22	123
1648.57	129
1648.93	116
1649.28	119
1649.64	119
1650	123
1650.35	123
1650.71	128
1651.06	122
1651.42	116
1651.77	122
1652.13	133
1652.48	156
1652.84	150
1653.2	127
1653.55	117
1653.91	113
1654.26	125
1654.62	120
1654.97	125
1655.33	126
1655.68	127
1656.04	125
1656.39	133
1656.75	137
1657.1	130
1657.46	146
1657.81	152
1658.17	146
1658.52	151
1658.88	163
1659.23	157
1659.59	142
1659.94	144
1660.3	150
1660.65	163
1661.01	149
1661.36	161
1661.72	158
1662.07	170
1662.43	178
1662.78	174
1663.14	184
1663.49	171
1663.85	191
1664.2	175
1664.56	204
1664.91	210
1665.27	191
1665.62	197
1665.98	212
1666.33	223
1666.69	213
1667.04	238
1667.39	214
1667.75	231
1668.1	249
1668.46	231
1668.81	254
1669.17	249
1669.52	262
1669.88	252
1670.23	262
1670.58	289
1670.94	279
1671.29	300
1671.65	296
1672	282
1672.36	315
1672.71	314
1673.06	324
1673.42	308
1673.77	309
1674.13	325
1674.48	316
1674.83	347
1675.19	327
1675.54	346
1675.9	348
1676.25	350
1676.6	381
1676.96	383
1677.31	362
1677.67	372
1678.02	372
1678.37	379
1678.73	386
1679.08	377
1679.43	389
1679.79	377
1680.14	388
1680.5	414
1680.85	399
1681.2	411
1681.56	407
1681.91	413
1682.26	420
1682.62	421
1682.97	441
1683.32	414
1683.68	420
1684.03	424
1684.38	417
1684.74	442
1685.09	434
1685.44	446
1685.8	438
1686.15	434
1686.5	452
1686.86	440
1687.21	448
1687.56	449
1687.92	433
1688.27	460
1688.62	445
1688.98	448
1689.33	454
1689.68	441
1690.03	457
1690.39	445
1690.74	445
1691.09	456
1691.45	439
1691.8	456
1692.15	445
1692.5	444
1692.86	462
1693.21	435
1693.56	451
1693.92	442
1694.27	441
1694.62	447
1694.97	426
1695.33	448
1695.68	433
1696.03	431
1696.38	441
1696.74	421
1697.09	432
1697.44	425
1697.79	419
1698.15	427
1698.5	413
1698.85	422
1699.2	409
1699.56	405
1699.91	413
1700.26	399
1700.61	410
1700.97	399
1701.32	395
1701.67	404
1702.02	388
1702.37	398
1702.73	394
1703.08	388
1703.43	392
1703.78	380
1704.13	384
1704.49	386
1704.84	375
1705.19	386
1705.54	372
1705.89	376
1706.25	381
1706.6	367
1706.95	377
1707.3	371
1707.65	369
1708.01	376
1708.36	367
1708.71	384
1709.06	364
1709.41	371
1709.76	374
1710.12	364
1710.47	382
1710.82	379
1711.17	369
1711.52	383
1711.87	374
1712.23	385
1712.58	379
1712.93	382
1713.28	390
1713.63	379
1713.98	385
1714.33	393
1714.69	386
1715.04	409
1715.39	389
1715.74	397
1716.09	412
1716.44	405
1716.79	440
1717.14	424
1717.5	427
1717.85	439
1718.2	427
1718.55	459
1718.9	452
1719.25	457
1719.6	474
1719.95	460
1720.3	487
1720.65	495
1721.01	484
1721.36	518
1721.71	509
1722.06	537
1722.41	535
1722.76	552
1723.11	553
1723.46	539
1723.81	578
1724.16	590
1724.51	577
1724.86	622
1725.21	600
1725.56	613
1725.92	659
1726.27	634
1726.62	680
1726.97	673
1727.32	642
1727.67	700
1728.02	681
1728.37	695
1728.72	766
1729.07	702
1729.42	746
1729.77	759
1730.12	742
1730.47	818
1730.82	767
1731.17	802
1731.52	825
1731.87	801
1732.22	874
1732.57	843
1732.92	891
1733.27	879
1733.62	861
1733.97	948
1734.32	887
1734.67	947
1735.02	947
1735.37	937
1735.72	998
1736.07	943
1736.42	1041
1736.77	992
1737.12	993
1737.47	1081
1737.82	984
1738.17	1089
1738.52	1045
1738.87	1055
1739.22	1116
1739.57	1025
1739.92	1166
1740.27	1085
1740.62	1076
1740.97	1186
1741.32	1065
1741.67	1163
1742.02	1131
1742.37	1084
1742.72	1222
1743.06	1088
1743.41	1143
1743.76	1232
1744.11	1090
1744.46	1190
1744.81	1160
1745.16	1132
1745.51	1245
1745.86	1093
1746.21	1141
1746.56	1223
1746.91	1059
1747.26	1161
1747.6	1234
1747.95	1079
1748.3	1195
1748.65	1134
1749	1076
1749.35	1250
1749.7	1057
1750.05	1055
1750.4	1221
1750.75	1035
1751.09	1160
1751.44	1177
1751.79	1077
1752.14	1174
1752.49	1026
1752.84	1078
1753.19	1138
1753.54	912
1753.88	1040
1754.23	1043
1754.58	945
1754.93	1050
1755.28	958
1755.63	1005
1755.98	1095
1756.32	845
1756.67	940
1757.02	1027
1757.37	789
1757.72	868
1758.07	885
1758.42	800
1758.76	949
1759.11	787
1759.46	855
1759.81	999
1760.16	709
1760.5	785
1760.85	885
1761.2	680
1761.55	773
1761.9	674
1762.25	725
1762.59	820
1762.94	617
1763.29	765
1763.64	837
1763.99	622
1764.33	627
1764.68	612
1765.03	638
1765.38	604
1765.73	457
1766.07	690
1766.42	642
1766.77	524
1767.12	684
1767.46	633
1767.81	607
1768.16	488
1768.51	482
1768.85	631
1769.2	406
1769.55	440
1769.9	682
1770.25	532
1770.59	571
1770.94	585
1771.29	557
1771.64	495
1771.98	330
1772.33	491
1772.68	515
1773.02	383
1773.37	480
1773.72	506
1774.07	613
1774.41	605
1774.76	467
1775.11	701
1775.46	689
1775.8	354
1776.15	504
1776.5	432
1776.84	519
1777.19	602
1777.54	449
1777.89	769
1778.23	954
1778.58	556
1778.93	769
1779.27	878
1779.62	592
1779.97	769
1780.31	748
1780.66	646
1781.01	935
1781.35	637
1781.7	811
1782.05	1432
1782.39	903
1782.74	905
1783.09	1004
1783.43	898
1783.78	1284
1784.13	1068
1784.47	882
1784.82	1408
1785.17	916
1785.51	822
1785.86	1262
1786.21	1430
1786.55	1490
1786.9	1709
1787.25	1691
1787.59	2181
1787.94	1707
1788.29	1224
1788.63	1464
1788.98	1480
1789.32	1569
1789.67	1849
1790.02	1740
1790.36	1171
1790.71	2130
1791.06	3223
1791.4	2842
1791.75	2899
1792.09	2530
1792.44	3355
1792.79	3978
1793.13	2952
1793.48	3533
1793.82	3398
1794.17	2742
1794.52	3608
1794.86	2769
1795.21	2439
1795.55	3089
1795.9	2116
1796.24	1464
1796.59	2232
1796.94	5454
1797.28	6233
1797.63	5447
1797.97	4188
1798.32	3632
1798.66	3890
1799.01	3387
1799.36	4260
1799.7	5611
1800.05	3510
1800.39	3594
1800.74	5159
1801.08	3579
1801.43	4288
1801.77	8877
1802.12	7288
1802.46	6367
1802.81	3801
1803.15	5466
1803.5	6046
1803.85	4768
1804.19	4889
1804.54	3837
1804.88	2752
1805.23	4208
1805.57	6450
1805.92	4489
1806.26	4517
1806.61	9453
1806.95	9562
1807.3	5914
1807.64	4660
1807.99	8048
1808.33	11224
1808.68	8455
1809.02	7797
1809.37	4765
1809.71	4598
1810.06	12951
1810.4	11530
1810.75	10046
1811.09	6807
1811.43	5107
1811.78	6763
1812.12	13559
1812.47	14110
1812.81	13809
1813.16	11110
1813.5	10413
1813.85	10045
1814.19	9720
1814.54	9397
1814.88	9128
1815.23	7808
1815.57	7017
1815.91	7166
1816.26	4747
1816.6	3712
1816.95	3561
1817.29	11896
1817.64	15271
1817.98	9173
1818.32	10491
1818.67	12917
1819.01	16253
1819.36	13201
1819.7	12424
1820.05	11659
1820.39	9028
1820.73	10913
1821.08	11246
1821.42	9996
1821.77	11047
1822.11	8959
1822.45	7986
1822.8	6566
1823.14	7819
1823.49	9446
1823.83	5428
1824.17	12609
1824.52	18343
1824.86	15226
1825.2	12184
1825.55	10715
1825.89	11042
1826.24	8084
1826.58	6159
1826.92	11127
1827.27	17110
1827.61	12098
1827.95	12035
1828.3	11417
1828.64	9475
1828.98	9815
1829.33	7342
1829.67	5445
1830.02	8575
1830.36	18042
1830.7	13171
1831.05	12471
1831.39	15474
1831.73	12744
1832.08	13073
1832.42	10986
1832.76	10192
1833.1	10393
1833.45	9450
1833.79	9478
1834.13	8599
1834.48	7836
1834.82	8801
1835.16	10699
1835.51	9747
1835.85	8764
1836.19	9130
1836.54	7695
1836.88	6967
1837.22	6173
1837.56	5543
1837.91	3887
1838.25	6066
1838.59	8636
1838.94	11007
1839.28	12169
1839.62	8486
1839.96	6232
1840.31	7982
1840.65	8658
1840.99	5128
1841.34	3876
1841.68	9287
1842.02	15372
1842.36	12869
1842.71	10742
1843.05	8497
1843.39	4899
1843.73	6127
1844.08	13879
1844.42	14015
1844.76	12819
1845.1	13331
1845.45	11226
1845.79	8543
1846.13	7606
1846.47	11271
1846.81	10139
1847.16	7620
1847.5	5303
1847.84	9508
1848.18	13346
1848.53	11676
1848.87	9820
1849.21	8549
1849.55	8977
1849.89	7667
1850.24	7355
1850.58	7682
1850.92	6579
1851.26	6462
1851.6	7041
1851.95	7039
1852.29	6599
1852.63	6278
1852.97	5641
1853.31	5086
1853.66	5087
1854	3870
1854.34	4067
1854.68	9164
1855.02	7218
1855.36	6343
1855.71	5372
1856.05	4690
1856.39	5266
1856.73	4234
1857.07	3887
1857.41	5045
1857.76	4757
1858.1	3816
1858.44	4144
1858.78	4160
1859.12	3764
1859.46	3881
1859.8	3117
1860.15	3458
1860.49	2581
1860.83	2219
1861.17	5105
1861.51	6860
1861.85	4437
1862.19	3476
1862.53	3309
1862.88	2338
1863.22	3814
1863.56	3972
1863.9	3102
1864.24	3107
1864.58	2602
1864.92	3602
1865.26	3155
1865.6	2968
1865.94	2355
1866.29	2226
1866.63	2140
1866.97	1772
1867.31	2025
1867.65	1607
1867.99	1557
1868.33	1699
1868.67	2208
1869.01	1994
1869.35	1561
1869.69	1526
1870.03	2251
1870.37	5411
1870.72	3815
1871.06	3145
1871.4	3750
1871.74	2152
1872.08	1839
1872.42	1767
1872.76	1460
1873.1	1870
1873.44	4620
1873.78	3575
1874.12	2143
1874.46	1454
1874.8	1406
1875.14	1663
1875.48	2618
1875.82	4720
1876.16	2980
1876.5	2105
1876.84	2344
1877.18	3549
1877.52	2772
1877.86	1760
1878.2	1799
1878.54	1359
1878.88	1478
1879.22	1773
1879.56	1488
1879.9	1549
1880.24	1597
1880.58	1702
1880.92	1803
1881.26	1974
1881.6	1973
1881.94	2292
1882.28	1911
1882.62	1600
1882.96	1717
1883.3	2267
1883.64	3082
1883.98	3423
1884.32	2282
1884.66	1776
1885	1781
1885.34	1833
1885.68	2042
1886.02	1768
1886.36	2335
1886.7	2268
1887.04	2011
1887.38	1868
1887.72	2062
1888.06	1971
1888.39	1980
1888.73	2509
1889.07	2238
1889.41	2589
1889.75	3724
1890.09	3675
1890.43	2799
1890.77	4021
1891.11	3343
1891.45	2086
1891.79	2211
1892.13	2109
1892.47	2134
1892.8	2395
1893.14	2698
1893.48	2410
1893.82	2892
1894.16	3332
1894.5	3155
1894.84	2437
1895.18	2697
1895.52	2707
1895.86	2607
1896.19	3016
1896.53	3019
1896.87	2929
1897.21	3264
1897.55	3508
1897.89	2901
1898.23	3216
1898.57	3554
1898.9	4006
1899.24	3116
1899.58	3266
1899.92	3126
1900.26	3230
1900.6	3633
1900.94	3429
1901.27	3397
1901.61	3578
1901.95	3767
1902.29	3414
1902.63	3784
1902.97	3810
1903.3	3766
1903.64	3764
1903.98	4281
1904.32	3878
1904.66	3676
1905	4026
1905.33	4060
1905.67	3916
1906.01	4237
1906.35	4266
1906.69	4302
1907.02	4223
1907.36	4097
1907.7	3959
1908.04	4026
1908.38	4405
1908.71	4337
1909.05	4087
1909.39	4392
1909.73	4505
1910.07	4288
1910.4	4081
1910.74	4350
1911.08	4375
1911.42	4313
1911.76	4362
1912.09	4711
1912.43	4331
1912.77	4454
1913.11	4667
1913.44	4596
1913.78	4369
1914.12	4661
1914.46	4703
1914.79	4464
1915.13	4642
1915.47	4817
1915.81	4448
1916.14	4345
1916.48	4826
1916.82	4594
1917.16	4585
1917.49	4669
1917.83	4905
1918.17	4488
1918.5	4742
1918.84	4760
1919.18	4637
1919.52	4539
1919.85	4915
1920.19	4638
1920.53	4622
1920.87	4741
1921.2	4889
1921.54	4550
1921.88	4811
1922.21	4823
1922.55	4728
1922.89	4653
1923.22	4910
1923.56	4725
1923.9	4646
1924.23	4755
1924.57	4743
1924.91	4566
1925.25	4702
1925.58	4822
1925.92	4613
1926.26	4608
1926.59	4697
1926.93	4673
1927.27	4501
1927.6	4742
1927.94	4619
1928.28	4540
1928.61	4568
1928.95	4782
1929.29	4483
1929.62	4588
1929.96	4605
1930.29	4659
1930.63	4372
1930.97	4708
1931.3	4561
1931.64	4417
1931.98	4488
1932.31	4607
1932.65	4403
1932.99	4509
1933.32	4529
1933.66	4423
1933.99	4402
1934.33	4526
1934.67	4494
1935	4277
1935.34	4593
1935.67	4382
1936.01	4281
1936.35	4456
1936.68	4461
1937.02	4241
1937.35	4336
1937.69	4374
1938.03	4265
1938.36	4362
1938.7	4373
1939.03	4187
1939.37	4221
1939.7	4420
1940.04	4191
1940.38	4323
1940.71	4371
1941.05	4188
1941.38	4200
1941.72	4263
1942.05	4293
1942.39	4155
1942.73	4362
1943.06	4196
1943.4	4139
1943.73	4303
1944.07	4378
1944.4	4177
1944.74	4218
1945.07	4268
1945.41	4092
1945.74	4222
1946.08	4355
1946.42	4092
1946.75	4119
1947.09	4402
1947.42	4195
1947.76	4219
1948.09	4368
1948.43	4339
1948.76	4077
1949.1	4250
1949.43	4337
1949.77	4199
1950.1	4225
1950.44	4394
1950.77	4171
1951.11	4131
1951.44	4306
1951.78	4442
1952.11	4151
1952.45	4211
1952.78	4216
1953.12	4294
1953.45	4081
1953.79	4379
1954.12	4242
1954.46	4176
1954.79	4167
1955.12	4405
1955.46	4166
1955.79	4190
1956.13	4313
1956.46	4226
1956.8	4072
1957.13	4379
1957.47	4297
1957.8	4188
1958.14	4261
1958.47	4434
1958.8	4204
1959.14	4215
1959.47	4340
1959.81	4326
1960.14	4014
1960.48	4229
1960.81	4258
1961.14	4210
1961.48	4051
1961.81	4338
1962.15	4212
1962.48	4093
1962.82	4104
1963.15	4353
1963.48	4124
1963.82	4071
1964.15	4190
1964.49	4223
1964.82	4008
1965.15	4075
1965.49	4234
1965.82	4067
1966.16	3957
1966.49	4156
1966.82	4137
1967.16	3921
1967.49	4016
1967.83	4134
1968.16	3990
1968.49	3848
1968.83	4054
1969.16	4003
1969.49	3863
1969.83	3831
1970.16	4046
1970.49	3821
1970.83	3774
1971.16	3785
1971.5	3967
1971.83	3745
1972.16	3698
1972.5	3812
1972.83	3810
1973.16	3652
1973.5	3600
1973.83	3824
1974.16	3666
1974.5	3520
1974.83	3557
1975.16	3775
1975.5	3509
1975.83	3452
1976.16	3497
1976.49	3542
1976.83	3354
1977.16	3353
1977.49	3462
1977.83	3353
1978.16	3197
1978.49	3222
1978.83	3387
1979.16	3172
1979.49	3192
1979.83	3197
1980.16	3233
1980.49	2947
1980.82	3082
1981.16	3134
1981.49	3085
1981.82	2817
1982.15	2973
1982.49	2946
1982.82	2803
1983.15	2800
1983.49	2904
1983.82	2712
1984.15	2598
1984.48	2649
1984.82	2746
1985.15	2587
1985.48	2472
1985.81	2578
1986.15	2408
1986.48	2351
1986.81	2395
1987.14	2462
1987.48	2221
1987.81	2230
1988.14	2257
1988.47	2314
1988.81	2106
1989.14	2192
1989.47	2128
1989.8	2080
1990.13	1983
1990.47	2096
1990.8	1995
1991.13	1858
1991.46	1874
1991.79	1931
1992.13	1766
1992.46	1771
1992.79	1768
1993.12	1753
1993.45	1573
1993.79	1658
1994.12	1690
1994.45	1607
1994.78	1472
1995.11	1535
1995.45	1488
1995.78	1401
1996.11	1435
1996.44	1434
1996.77	1377
1997.1	1263
1997.44	1371
1997.77	1309
1998.1	1256
1998.43	1228
1998.76	1282
1999.09	1147
1999.43	1111
1999.76	1125
2000.09	1145
2000.42	1024
2000.75	1033
2001.08	1014
2001.41	1020
2001.75	983
2002.08	1048
2002.41	982
2002.74	946
2003.07	937
2003.4	1018
2003.73	915
2004.06	906
2004.4	915
2004.73	893
2005.06	840
2005.39	917
2005.72	877
2006.05	831
2006.38	837
2006.71	881
2007.04	803
2007.37	822
2007.71	855
2008.04	835
2008.37	769
2008.7	836
2009.03	827
2009.36	801
2009.69	805
2010.02	855
2010.35	790
2010.68	798
2011.01	834
2011.34	855
2011.67	788
2012.01	836
2012.34	855
2012.67	833
2013	818
2013.33	886
2013.66	855
2013.99	840
2014.32	864
2014.65	921
2014.98	856
2015.31	884
2015.64	911
2015.97	930
2016.3	870
2016.63	929
2016.96	949
2017.29	935
2017.62	916
2017.95	967
2018.28	985
2018.61	940
2018.94	969
2019.27	1002
2019.6	1017
2019.93	961
2020.26	1029
2020.59	1039
2020.92	1032
2021.25	1011
2021.58	1093
2021.91	1058
2022.24	1052
2022.57	1069
2022.9	1125
2023.23	1072
2023.56	1091
2023.89	1123
2024.22	1135
2024.55	1097
2024.88	1125
2025.21	1166
2025.54	1138
2025.87	1130
2026.2	1141
2026.53	1198
2026.86	1143
2027.19	1147
2027.52	1170
2027.85	1195
2028.18	1169
2028.51	1148
2028.84	1203
2029.16	1187
2029.49	1178
2029.82	1159
2030.15	1222
2030.48	1185
2030.81	1176
2031.14	1176
2031.47	1215
2031.8	1187
2032.13	1165
2032.46	1181
2032.79	1182
2033.12	1177
2033.44	1154
2033.77	1200
2034.1	1179
2034.43	1152
2034.76	1153
2035.09	1182
2035.42	1196
2035.75	1143
2036.08	1157
2036.41	1156
2036.73	1169
2037.06	1123
2037.39	1133
2037.72	1141
2038.05	1130
2038.38	1106
2038.71	1101
2039.04	1133
2039.36	1111
2039.69	1086
2040.02	1076
2040.35	1079
2040.68	1082
2041.01	1035
2041.34	1057
2041.66	1041
2041.99	1041
2042.32	1015
2042.65	1025
2042.98	1031
2043.31	994
2043.63	986
2043.96	964
2044.29	998
2044.62	967
2044.95	943
2045.28	951
2045.6	939
2045.93	929
2046.26	912
2046.59	926
2046.92	914
2047.24	892
2047.57	873
2047.9	883
2048.23	889
2048.56	859
2048.88	853
2049.21	848
2049.54	831
2049.87	807
2050.2	817
2050.52	835
2050.85	805
2051.18	784
2051.51	769
2051.83	793
2052.16	774
2052.49	766
2052.82	757
2053.15	754
2053.47	738
2053.8	732
2054.13	747
2054.46	739
2054.78	709
2055.11	697
2055.44	713
2055.77	698
2056.09	698
2056.42	656
2056.75	665
2057.08	660
2057.4	649
2057.73	652
2058.06	656
2058.38	644
2058.71	620
2059.04	622
2059.37	632
2059.69	636
2060.02	618
2060.35	613
2060.67	616
2061	602
2061.33	592
2061.66	601
2061.98	594
2062.31	588
2062.64	579
2062.96	589
2063.29	586
2063.62	586
2063.94	570
2064.27	572
2064.6	556
2064.92	555
2065.25	557
2065.58	550
2065.91	534
2066.23	515
2066.56	539
2066.89	551
2067.21	537
2067.54	519
2067.87	526
2068.19	519
2068.52	527
2068.84	516
2069.17	529
2069.5	512
2069.82	502
2070.15	504
2070.48	522
2070.8	515
2071.13	496
2071.46	490
2071.78	499
2072.11	504
2072.43	506
2072.76	505
2073.09	496
2073.41	482
2073.74	486
2074.07	494
2074.39	489
2074.72	475
2075.04	476
2075.37	475
2075.7	474
2076.02	467
2076.35	473
2076.67	459
2077	442
2077.33	446
2077.65	454
2077.98	449
2078.3	445
2078.63	443
2078.95	449
2079.28	436
2079.61	434
2079.93	442
2080.26	443
2080.58	430
2080.91	421
2081.23	418
2081.56	430
2081.89	425
2082.21	419
2082.54	411
2082.86	411
2083.19	412
2083.51	410
2083.84	413
2084.16	403
2084.49	401
2084.81	387
2085.14	401
2085.46	392
2085.79	393
2086.12	386
2086.44	388
2086.77	382
2087.09	381
2087.42	387
2087.74	384
2088.07	380
2088.39	369
2088.72	371
2089.04	377
2089.37	374
2089.69	374
2090.02	371
2090.34	375
2090.67	367
2090.99	367
2091.32	368
2091.64	358
2091.97	366
2092.29	360
2092.62	368
2092.94	365
2093.26	362
2093.59	359
2093.91	362
2094.24	365
2094.56	349
2094.89	362
2095.21	359
2095.54	359
2095.86	358
2096.19	354
2096.51	361
2096.84	361
2097.16	358
2097.48	355
2097.81	359
2098.13	362
2098.46	359
2098.78	353
2099.11	349
2099.43	354
2099.75	357
2100.08	354
2100.4	357
2100.73	351
2101.05	354
2101.38	348
2101.7	350
2102.02	357
2102.35	356
2102.67	351
2103	349
2103.32	349
2103.64	354
2103.97	351
2104.29	348
2104.62	341
2104.94	339
2105.26	339
2105.59	342
2105.91	341
2106.23	349
2106.56	337
2106.88	334
2107.21	339
2107.53	341
2107.85	344
2108.18	334
2108.5	326
2108.82	331
2109.15	336
2109.47	338
2109.79	324
2110.12	321
2110.44	322
2110.76	324
2111.09	321
2111.41	324
2111.73	314
2112.06	314
2112.38	311
2112.7	315
2113.03	321
2113.35	310
2113.67	307
2114	307
2114.32	302
2114.64	306
2114.97	301
2115.29	294
2115.61	299
2115.94	293
2116.26	292
2116.58	291
2116.91	289
2117.23	289
2117.55	273
2117.87	278
2118.2	274
2118.52	281
2118.84	278
2119.17	267
2119.49	267
2119.81	267
2120.13	269
2120.46	264
2120.78	263
2121.1	256
2121.42	244
2121.75	250
2122.07	249
2122.39	255
2122.72	250
2123.04	240
2123.36	244
2123.68	246
2124.01	243
2124.33	241
2124.65	240
2124.97	241
2125.29	240
2125.62	239
2125.94	238
2126.26	235
2126.58	236
2126.91	227
2127.23	235
2127.55	227
2127.87	229
2128.2	226
2128.52	227
2128.84	228
2129.16	223
2129.48	226
2129.81	225
2130.13	224
2130.45	223
2130.77	220
2131.09	222
2131.42	223
2131.74	222
2132.06	216
2132.38	221
2132.7	220
2133.02	220
2133.35	224
2133.67	221
2133.99	223
2134.31	220
2134.63	222
2134.96	224
2135.28	223
2135.6	220
2135.92	220
2136.24	222
2136.56	223
2136.88	222
2137.21	220
2137.53	219
2137.85	219
2138.17	219
2138.49	220
2138.81	217
2139.13	218
2139.46	216
2139.78	215
2140.1	217
2140.42	217
2140.74	218
2141.06	215
2141.38	213
2141.7	212
2142.03	214
2142.35	213
2142.67	213
2142.99	210
2143.31	207
2143.63	206
2143.95	208
2144.27	210
2144.59	208
2144.91	206
2145.24	203
2145.56	198
2145.88	200
2146.2	200
2146.52	199
2146.84	196
2147.16	196
2147.48	199
2147.8	196
2148.12	197
2148.44	194
2148.76	188
2149.08	193
2149.41	190
2149.73	190
2150.05	187
2150.37	184
2150.69	180
2151.01	181
2151.33	182
2151.65	181
2151.97	178
2152.29	172
2152.61	173
2152.93	175
2153.25	174
2153.57	174
2153.89	172
2154.21	172
2154.53	170
2154.85	169
2155.17	169
2155.49	165
2155.81	164
2156.13	163
2156.45	167
2156.77	167
2157.09	165
2157.41	164
2157.73	162
2158.05	162
2158.37	164
2158.69	163
2159.01	161
2159.33	161
2159.65	161
2159.97	160
2160.29	160
2160.61	161
2160.93	159
2161.25	156
2161.57	156
2161.89	157
2162.21	158
2162.53	156
2162.85	155
2163.17	153
2163.49	150
2163.81	155
2164.13	154
2164.45	152
2164.77	152
2165.08	148
2165.4	150
2165.72	152
2166.04	153
2166.36	150
2166.68	150
2167	149
2167.32	149
2167.64	148
2167.96	148
2168.28	147
2168.6	146
2168.92	145
2169.24	147
2169.55	144
2169.87	145
2170.19	146
2170.51	143
2170.83	143
2171.15	146
2171.47	142
2171.79	143
2172.11	142
2172.43	142
2172.74	141
2173.06	140
2173.38	140
2173.7	137
2174.02	138
2174.34	138
2174.66	137
2174.98	139
2175.29	139
2175.61	137
2175.93	136
2176.25	136
2176.57	135
2176.89	135
2177.21	134
2177.52	134
2177.84	133
2178.16	132
2178.48	132
2178.8	133
2179.12	131
2179.43	131
2179.75	130
2180.07	129
2180.39	125
2180.71	129
2181.03	129
2181.34	129
2181.66	128
2181.98	129
2182.3	126
2182.62	127
2182.93	127
2183.25	127
2183.57	125
2183.89	126
2184.21	127
2184.52	126
2184.84	126
2185.16	123
2185.48	124
2185.8	123
2186.11	121
2186.43	122
2186.75	121
2187.07	120
2187.39	121
2187.7	118
2188.02	116
2188.34	120
2188.66	116
2188.97	121
2189.29	120
2189.61	121
2189.93	120
2190.24	119
2190.56	118
2190.88	118
2191.2	118
2191.51	116
2191.83	118
2192.15	116
2192.47	116
2192.78	116
2193.1	117
2193.42	116
2193.74	115
2194.05	115
2194.37	116
2194.69	114
2195	117
2195.32	114
2195.64	111
2195.96	114
2196.27	113
2196.59	112
2196.91	113
2197.22	109
2197.54	111
2197.86	112
2198.18	112
2198.49	112
2198.81	111
2199.13	110
2199.44	110
2199.76	108
2200.08	108
2200.39	107
2200.71	108
2201.03	109
2201.34	108
2201.66	108
2201.98	107
2202.29	107
2202.61	106
2202.93	107
2203.24	107
2203.56	104
2203.88	105
2204.19	106
2204.51	105
2204.83	105
2205.14	104
2205.46	103
2205.78	103
2206.09	103
2206.41	104
2206.72	102
2207.04	101
2207.36	103
2207.67	103
2207.99	98
2208.31	101
2208.62	101
2208.94	100
2209.25	102
2209.57	101
2209.89	99
2210.2	100
2210.52	99
2210.83	99
2211.15	99
2211.47	99
2211.78	97
2212.1	98
2212.41	97
2212.73	98
2213.05	98
2213.36	98
2213.68	98
2213.99	97
2214.31	96
2214.62	97
2214.94	96
2215.26	97
2215.57	97
2215.89	95
2216.2	94
2216.52	96
2216.83	96
2217.15	96
2217.46	94
2217.78	95
2218.1	95
2218.41	94
2218.73	94
2219.04	94
2219.36	95
2219.67	94
2219.99	94
2220.3	94
2220.62	93
2220.93	94
2221.25	94
2221.56	93
2221.88	95
2222.19	93
2222.51	93
2222.82	93
2223.14	93
2223.45	86
2223.77	92
2224.08	93
2224.4	92
2224.71	92
2225.03	92
2225.34	91
2225.66	92
2225.97	91
2226.29	84
2226.6	90
2226.92	91
2227.23	90
2227.55	91
2227.86	89
2228.18	89
2228.49	90
2228.81	89
2229.12	89
2229.44	88
2229.75	89
2230.07	88
2230.38	89
2230.69	88
2231.01	86
2231.32	86
2231.64	89
2231.95	86
2232.27	87
2232.58	87
2232.9	86
2233.21	87
2233.52	87
2233.84	85
2234.15	86
2234.47	86
2234.78	86
2235.1	88
2235.41	87
2235.72	86
2236.04	83
2236.35	85
2236.67	85
2236.98	85
2237.29	81
2237.61	85
2237.92	85
2238.24	82
2238.55	83
2238.86	82
2239.18	84
2239.49	83
2239.8	81
2240.12	79
2240.43	83
2240.75	84
2241.06	81
2241.37	80
2241.69	81
2242	82
2242.31	81
2242.63	82
2242.94	83
2243.26	80
2243.57	82
2243.88	78
2244.2	81
2244.51	83
2244.82	79
2245.14	80
2245.45	82
2245.76	81
2246.08	82
2246.39	80
2246.7	79
2247.02	81
2247.33	80
2247.64	80
2247.96	79
2248.27	80
2248.58	78
2248.9	79
2249.21	75
2249.52	79
2249.83	78
2250.15	77
2250.46	80
2250.77	78
2251.09	77
2251.4	76
2251.71	78
2252.03	77
2252.34	77
2252.65	77
2252.96	78
2253.28	78
2253.59	78
2253.9	76
2254.21	76
2254.53	77
2254.84	77
2255.15	76
2255.47	73
2255.78	75
2256.09	78
2256.4	76
2256.72	76
2257.03	76
2257.34	76
2257.65	75
2257.97	76
2258.28	73
2258.59	74
2258.9	76
2259.22	74
2259.53	75
2259.84	75
2260.15	73
2260.46	72
2260.78	73
2261.09	73
2261.4	74
2261.71	74
2262.03	73
2262.34	73
2262.65	74
2262.96	72
2263.27	72
2263.59	73
2263.9	71
2264.21	72
2264.52	72
2264.83	73
2265.15	73
2265.46	72
2265.77	73
2266.08	72
2266.39	73
2266.7	70
2267.02	72
2267.33	71
2267.64	70
2267.95	69
2268.26	71
2268.57	71
2268.89	73
2269.2	71
2269.51	71
2269.82	72
2270.13	69
2270.44	70
2270.76	69
2271.07	70
2271.38	69
2271.69	70
2272	69
2272.31	70
2272.62	68
2272.93	67
2273.25	66
2273.56	69
2273.87	68
2274.18	70
2274.49	66
2274.8	68
2275.11	69
2275.42	67
2275.74	68
2276.05	68
2276.36	68
2276.67	68
2276.98	66
2277.29	68
2277.6	67
2277.91	66
2278.22	66
2278.53	67
2278.85	64
2279.16	66
2279.47	68
2279.78	62
2280.09	66
2280.4	66
2280.71	65
2281.02	67
2281.33	66
2281.64	65
2281.95	67
2282.26	67
2282.57	66
2282.88	66
2283.19	65
2283.5	65
2283.82	66
2284.13	65
2284.44	65
2284.75	64
2285.06	64
2285.37	61
2285.68	65
2285.99	65
2286.3	63
2286.61	64
2286.92	64
2287.23	64
2287.54	63
2287.85	64
2288.16	63
2288.47	64
2288.78	66
2289.09	62
2289.4	62
2289.71	63
2290.02	62
2290.33	63
2290.64	61
2290.95	63
2291.26	63
2291.57	61
2291.88	63
2292.19	61
2292.5	60
2292.81	62
2293.12	0
2293.43	0
2293.74	0
2294.05	0
2294.36	0
2294.67	0
2294.98	0
2295.29	0
2295.6	0
2295.91	0
2296.21	0
2296.52	0
2296.83	0
2297.14	0
2297.45	0
2297.76	0
2298.07	0
2298.38	0
2298.69	0
2299	0
2299.31	0
2299.62	0
2299.93	0
2300.24	0
2300.55	0
2300.85	0
2301.16	0
2301.47	0
2301.78	0
2302.09	0
2302.4	0
2302.71	0
2303.02	0
2303.33	0
2303.64	0
2303.94	0
2304.25	0
2304.56	0
2304.87	0
2305.18	0
2305.49	0
2305.8	0
2306.11	0
2306.42	0
2306.72	0
2307.03	0
2307.34	0
2307.65	0
2307.96	0
2308.27	0
2308.58	0
2308.88	0
2309.19	0
2309.5	0
2309.81	0
2310.12	0
2310.43	0
2310.74	0
2311.04	0
2311.35	0
2311.66	0
2311.97	0
2312.28	0
2312.59	0
2312.89	0
2313.2	0
2313.51	0
2313.82	0
2314.13	0
2314.43	0
2314.74	0
2315.05	0
2315.36	0
2315.67	0
2315.97	0
2316.28	0
2316.59	0
2316.9	0
2317.21	0
2317.51	0
2317.82	0
2318.13	0
2318.44	0
2318.75	0
2319.05	0
2319.36	0
2319.67	0
2319.98	0
2320.28	0
2320.59	0
2320.9	0
2321.21	0
2321.51	0
2321.82	0
2322.13	0
2322.44	0
2322.74	0
2323.05	0
2323.36	0
2323.67	0
2323.97	0
2324.28	0
2324.59	0
2324.9	0
2325.2	0
2325.51	0
2325.82	0
2326.13	0
2326.43	0
2326.74	0
2327.05	0
2327.35	0
2327.66	0
2327.97	0
2328.27	0
2328.58	0
2328.89	0
2329.2	0
2329.5	0
2329.81	0
2330.12	0
2330.42	0
2330.73	0
2331.04	0
2331.34	0
2331.65	0
2331.96	0
2332.26	0
2332.57	0
2332.88	0
2333.18	0
2333.49	0
2333.8	0
2334.1	0
2334.41	0
2334.72	0
2335.02	0
2335.33	0
2335.64	0
2335.94	0
2336.25	0
2336.56	0
2336.86	0
2337.17	0
2337.48	0
2337.78	0
2338.09	0
2338.39	0
2338.7	0
2339.01	0
2339.31	0
2339.62	0
2339.93	0
2340.23	0
2340.54	0
2340.84	0
2341.15	0
2341.46	0
2341.76	0
2342.07	0
2342.37	0
2342.68	0
2342.99	0
2343.29	0
2343.6	0
2343.9	0
2344.21	0
2344.51	0
2344.82	0
2345.13	0
2345.43	0
2345.74	0
2346.04	0
2346.35	0
2346.65	0
2346.96	0
2347.27	0
2347.57	0
2347.88	0
2348.18	0
2348.49	0
2348.79	0
2349.1	0
2349.4	0
2349.71	0
2350.01	0
2350.32	0
2350.63	0
2350.93	0
2351.24	0
2351.54	0
2351.85	0
2352.15	0
2352.46	0
2352.76	0
2353.07	0
2353.37	0
2353.68	0
2353.98	0
2354.29	0
2354.59	0
2354.9	0
2355.2	0
2355.51	0
2355.81	0
2356.12	0
2356.42	0
2356.73	0
2357.03	0
2357.34	0
2357.64	0
2357.95	0
2358.25	0
2358.55	0
2358.86	0
2359.16	0
2359.47	0
2359.77	0
2360.08	0
2360.38	0
2360.69	0
2360.99	0
2361.3	0
2361.6	0
2361.9	0
2362.21	0
2362.51	0
2362.82	0
2363.12	0
2363.43	0
2363.73	0
2364.04	0
2364.34	0
2364.64	0
2364.95	0
2365.25	0
2365.56	0
2365.86	0
2366.16	0
2366.47	0
2366.77	0
2367.08	0
2367.38	0
2367.68	0
2367.99	0
2368.29	0
2368.6	0
2368.9	0
2369.2	0
2369.51	0
2369.81	0
2370.12	0
2370.42	0
2370.72	0
2371.03	0
2371.33	0
2371.63	0
2371.94	0
2372.24	0
2372.55	0
2372.85	0
2373.15	0
2373.46	0
2373.76	0
2374.06	0
2374.37	0
2374.67	0
2374.97	0
2375.28	0
2375.58	0
2375.88	0
2376.19	0
2376.49	0
2376.79	0
2377.1	0
2377.4	0
2377.7	0
2378.01	0
2378.31	0
2378.61	0
2378.92	0
2379.22	0
2379.52	0
2379.82	0
2380.13	0
2380.43	0
2380.73	0
2381.04	0
2381.34	0
2381.64	0
2381.95	0
2382.25	0
2382.55	0
2382.85	0
2383.16	0
2383.46	0
2383.76	0
2384.06	0
2384.37	0
2384.67	0
2384.97	0
2385.28	0
2385.58	0
2385.88	0
2386.18	0
2386.49	0
2386.79	0
2387.09	0
2387.39	0
2387.69	0
2388	0
2388.3	0
2388.6	0
2388.9	0
2389.21	0
2389.51	0
2389.81	0
2390.11	0
2390.42	0
2390.72	0
2391.02	0
2391.32	0
2391.62	0
2391.93	0
2392.23	0
2392.53	0
2392.83	0
2393.13	0
2393.44	0
2393.74	0
2394.04	0
2394.34	0
2394.64	0
2394.95	0
2395.25	0
2395.55	0
2395.85	0
2396.15	0
2396.45	0
2396.76	0
2397.06	0
2397.36	0
2397.66	0
2397.96	0
2398.26	0
2398.57	0
2398.87	0
2399.17	0
2399.47	0
2399.77	0
2400.07	0
2400.37	0
2400.68	0
2400.98	0
2401.28	0
2401.58	0
2401.88	0
2402.18	0
2402.48	0
2402.79	0
2403.09	0
2403.39	0
2403.69	0
2403.99	0
2404.29	0
2404.59	0
2404.89	0
2405.19	0
2405.5	0
2405.8	0
2406.1	0
2406.4	0
2406.7	0
2407	0
2407.3	0
2407.6	0
2407.9	0
2408.2	0
2408.5	0
2408.8	0
2409.11	0
2409.41	0
2409.71	0
2410.01	0
2410.31	0
2410.61	0
2410.91	0
2411.21	0
2411.51	0
2411.81	0
2412.11	0
2412.41	0
2412.71	0
2413.01	0
2413.31	0
2413.61	0
2413.91	0
2414.21	0
2414.51	0
2414.81	0
2415.12	0
2415.42	0
2415.72	0
2416.02	0
2416.32	0
2416.62	0
2416.92	0
2417.22	0
2417.52	0
2417.82	0
2418.12	0
2418.42	0
2418.72	0
2419.02	0
2419.32	0
2419.62	0
2419.92	0
2420.22	0
2420.52	0
2420.82	0
2421.12	0
2421.42	0
2421.71	0
2422.01	0
2422.31	0
2422.61	0
2422.91	0
2423.21	0
2423.51	0
2423.81	0
2424.11	0
2424.41	0
2424.71	0
2425.01	0
2425.31	0
2425.61	0
2425.91	0
2426.21	0
2426.51	0
2426.81	0
2427.11	0
2427.41	0
2427.7	0
2428	0
2428.3	0
2428.6	0
2428.9	0
2429.2	0
2429.5	0
2429.8	0
2430.1	0
2430.4	0
2430.7	0
2430.99	0
2431.29	0
2431.59	0
2431.89	0
2432.19	0
2432.49	0
2432.79	0
2433.09	0
2433.39	0
2433.68	0
2433.98	0
2434.28	0
2434.58	0
2434.88	0
2435.18	0
2435.48	0
2435.78	0
2436.07	0
2436.37	0
2436.67	0
2436.97	0
2437.27	0
2437.57	0
2437.86	0
2438.16	0
2438.46	0
2438.76	0
2439.06	0
2439.36	0
2439.66	0
2439.95	0
2440.25	0
2440.55	0
2440.85	0
2441.15	0
2441.44	0
2441.74	0
2442.04	0
2442.34	0
2442.64	0
2442.93	0
2443.23	0
2443.53	0
2443.83	0
2444.13	0
2444.42	0
2444.72	0
2445.02	0
2445.32	0
2445.62	0
2445.91	0
2446.21	0
2446.51	0
2446.81	0
2447.1	0
2447.4	0
2447.7	0
2448	0
2448.3	0
2448.59	0
2448.89	0
2449.19	0
2449.49	0
2449.78	0
2450.08	0
2450.38	0
2450.68	0
2450.97	0
2451.27	0
2451.57	0
2451.87	0
2452.16	0
2452.46	0
2452.76	0
2453.05	0
2453.35	0
2453.65	0
2453.95	0
2454.24	0
2454.54	0
2454.84	0
2455.13	0
2455.43	0
2455.73	0
2456.03	0
2456.32	0
2456.62	0
2456.92	0
2457.21	0
2457.51	0
2457.81	0
2458.1	0
2458.4	0
2458.7	0
2458.99	0
2459.29	0
2459.59	0
2459.88	0
2460.18	0
2460.48	0
2460.77	0
2461.07	0
2461.37	0
2461.66	0
2461.96	0
2462.26	0
2462.55	0
2462.85	0
2463.15	0
2463.44	0
2463.74	0
2464.04	0
2464.33	0
2464.63	0
2464.92	0
2465.22	0
2465.52	0
2465.81	0
2466.11	0
2466.41	0
2466.7	0
2467	0
2467.29	0
2467.59	0
2467.89	0
2468.18	0
2468.48	0
2468.77	0
2469.07	0
2469.37	0
2469.66	0
2469.96	0
2470.25	0
2470.55	0
2470.84	0
2471.14	0
2471.44	0
2471.73	0
2472.03	0
2472.32	0
2472.62	0
2472.91	0
2473.21	0
2473.51	0
2473.8	0
2474.1	0
2474.39	0
2474.69	0
2474.98	0
2475.28	0
2475.57	0
2475.87	0
2476.17	0
2476.46	0
2476.76	0
2477.05	0
2477.35	0
2477.64	0
2477.94	0
2478.23	0
2478.53	0
2478.82	0
2479.12	0
2479.41	0
2479.71	0
2480	0
2480.3	0
2480.59	0
2480.89	0
2481.18	0
2481.48	0
2481.77	0
2482.07	0
2482.36	0
2482.66	0
2482.95	0
2483.25	0
2483.54	0
2483.84	0
2484.13	0
2484.43	0
2484.72	0
2485.02	0
2485.31	0
2485.6	0
2485.9	0
2486.19	0
2486.49	0
2486.78	0
2487.08	0
2487.37	0
2487.67	0
2487.96	0
2488.26	0
2488.55	0
2488.84	0
2489.14	0
2489.43	0
2489.73	0
2490.02	0
2490.32	0
2490.61	0
2490.9	0
2491.2	0
2491.49	0
2491.79	0
2492.08	0
2492.37	0
2492.67	0
2492.96	0
2493.26	0
2493.55	0
2493.84	0
2494.14	0
2494.43	0
2494.73	0
2495.02	0
2495.31	0
2495.61	0
2495.9	0
2496.2	0
2496.49	0
2496.78	0
2497.08	0
2497.37	0
2497.66	0
2497.96	0
2498.25	0
2498.54	0
2498.84	0
2499.13	0
2499.43	0
2499.72	0
2500.01	0
2500.31	0
2500.6	0
2500.89	0
2501.19	0
2501.48	0
2501.77	0
2502.07	0
2502.36	0
2502.65	0
2502.95	0
2503.24	0
2503.53	0
2503.82	0
2504.12	0
2504.41	0
2504.7	0
2505	0
2505.29	0
2505.58	0
2505.88	0
2506.17	0
2506.46	0
2506.76	0
2507.05	0
2507.34	0
2507.63	0
2507.93	0
2508.22	0
2508.51	0
2508.8	0
2509.1	0
2509.39	0
2509.68	0
2509.98	0
2510.27	0
2510.56	0
2510.85	0
2511.15	0
2511.44	0
2511.73	0
2512.02	0
2512.32	0
2512.61	0
2512.9	0
2513.19	0
2513.49	0
2513.78	0
2514.07	0
2514.36	0
2514.65	0
2514.95	0
2515.24	0
2515.53	0
2515.82	0
2516.12	0
2516.41	0
2516.7	0
2516.99	0
2517.28	0
2517.58	0
2517.87	0
2518.16	0
2518.45	0
2518.74	0
2519.04	0
2519.33	0
2519.62	0
2519.91	0
2520.2	0
2520.5	0
2520.79	0
2521.08	0
2521.37	0
2521.66	0
2521.95	0
2522.25	0
2522.54	0
2522.83	0
2523.12	0
2523.41	0
2523.7	0
2523.99	0
2524.29	0
2524.58	0
2524.87	0
2525.16	0
2525.45	0
2525.74	0
2526.03	0
2526.33	0
2526.62	0
2526.91	0
2527.2	0
2527.49	0
2527.78	0
2528.07	0
2528.36	0
2528.66	0
2528.95	0
2529.24	0
2529.53	0
2529.82	0
2530.11	0
2530.4	0
2530.69	0
2530.98	0
2531.27	0
2531.57	0
2531.86	0
2532.15	0
2532.44	0
2532.73	0
2533.02	0
2533.31	0
2533.6	0
2533.89	0
2534.18	0
2534.47	0
2534.76	0
2535.05	0
2535.35	0
2535.64	0
2535.93	0
2536.22	0
2536.51	0
2536.8	0
2537.09	0
2537.38	0
2537.67	0
2537.96	0
2538.25	0
2538.54	0
2538.83	0
2539.12	0
2539.41	0
2539.7	0
2539.99	0
2540.28	0
2540.57	0
2540.86	0
2541.15	0
2541.44	0
2541.73	0
2542.02	0
2542.31	0
2542.6	0
2542.89	0
2543.18	0
2543.47	0
2543.76	0
2544.05	0
2544.34	0
2544.63	0
2544.92	0
2545.21	0
2545.5	0
2545.79	0
2546.08	0
2546.37	0
2546.66	0
2546.95	0
2547.24	0
2547.53	0
2547.82	0
2548.11	0
2548.4	0
2548.69	0
2548.98	0
2549.27	0
2549.55	0
2549.84	0
2550.13	0
2550.42	0
2550.71	0
2551	0
2551.29	0
2551.58	0
2551.87	0
2552.16	0
2552.45	0
2552.74	0
2553.03	0
2553.31	0
2553.6	0
2553.89	0
2554.18	0
2554.47	0
2554.76	0
2555.05	0
2555.34	0
2555.63	0
2555.92	0
2556.2	0
2556.49	0
2556.78	0
2557.07	0
2557.36	0
2557.65	0
2557.94	0
2558.23	0
2558.51	0
2558.8	0
2559.09	0
2559.38	0
2559.67	0
2559.96	0
2560.25	0
2560.53	0
2560.82	0
2561.11	0
2561.4	0
2561.69	0
2561.98	0
2562.27	0
2562.55	0
2562.84	0
2563.13	0
2563.42	0
2563.71	0
2564	0
2564.28	0
2564.57	0
2564.86	0
2565.15	0
2565.44	0
2565.72	0
2566.01	0
2566.3	0
2566.59	0
2566.88	0
2567.16	0
2567.45	0
2567.74	0
2568.03	0
2568.32	0
2568.6	0
2568.89	0
2569.18	0
2569.47	0
2569.75	0

