Source: Spectrum Viewer

Chart: Pulse Spectrum

Series: 
Wavelength (nm)	S (a.u.)
1179.9	0
1180.29	0
1180.68	0
1181.06	0
1181.45	0
1181.83	0
1182.22	0
1182.6	0
1182.99	0
1183.38	0
1183.76	0
1184.15	0
1184.53	0
1184.92	0
1185.3	0
1185.69	0
1186.07	0
1186.46	0
1186.85	0
1187.23	0
1187.62	0
1188	0
1188.39	0
1188.77	0
1189.16	0
1189.54	0
1189.93	0
1190.31	0
1190.7	0
1191.08	0
1191.47	0
1191.85	0
1192.24	0
1192.62	0
1193.01	0
1193.39	0
1193.78	0
1194.16	0
1194.55	0
1194.93	0
1195.32	0
1195.7	0
1196.09	0
1196.47	0
1196.86	0
1197.24	0
1197.63	0
1198.01	0
1198.4	0
1198.78	0
1199.16	0
1199.55	0
1199.93	0
1200.32	0
1200.7	0
1201.09	0
1201.47	0
1201.86	0
1202.24	0
1202.63	0
1203.01	0
1203.39	0
1203.78	0
1204.16	0
1204.55	0
1204.93	0
1205.32	0
1205.7	0
1206.08	0
1206.47	0
1206.85	0
1207.24	0
1207.62	0
1208	0
1208.39	0
1208.77	0
1209.16	0
1209.54	0
1209.92	0
1210.31	0
1210.69	0
1211.08	0
1211.46	0
1211.84	0
1212.23	0
1212.61	0
1213	0
1213.38	0
1213.76	0
1214.15	0
1214.53	0
1214.91	0
1215.3	0
1215.68	0
1216.06	0
1216.45	0
1216.83	0
1217.22	0
1217.6	0
1217.98	0
1218.37	0
1218.75	0
1219.13	0
1219.52	0
1219.9	0
1220.28	0
1220.67	0
1221.05	0
1221.43	0
1221.82	0
1222.2	0
1222.58	0
1222.97	0
1223.35	0
1223.73	0
1224.11	0
1224.5	0
1224.88	0
1225.26	0
1225.65	0
1226.03	0
1226.41	0
1226.8	0
1227.18	0
1227.56	0
1227.94	0
1228.33	0
1228.71	0
1229.09	0
1229.47	0
1229.86	0
1230.24	0
1230.62	0
1231.01	0
1231.39	0
1231.77	0
1232.15	0
1232.54	0
1232.92	0
1233.3	0
1233.68	0
1234.07	0
1234.45	0
1234.83	0
1235.21	0
1235.6	0
1235.98	0
1236.36	0
1236.74	0
1237.12	0
1237.51	0
1237.89	0
1238.27	0
1238.65	0
1239.04	0
1239.42	0
1239.8	0
1240.18	0
1240.56	0
1240.95	0
1241.33	0
1241.71	0
1242.09	0
1242.47	0
1242.86	0
1243.24	0
1243.62	0
1244	0
1244.38	0
1244.77	0
1245.15	0
1245.53	0
1245.91	0
1246.29	0
1246.67	0
1247.06	0
1247.44	0
1247.82	0
1248.2	0
1248.58	0
1248.96	0
1249.34	0
1249.73	0
1250.11	0
1250.49	0
1250.87	0
1251.25	0
1251.63	0
1252.01	0
1252.4	0
1252.78	0
1253.16	0
1253.54	0
1253.92	0
1254.3	0
1254.68	0
1255.06	0
1255.45	0
1255.83	0
1256.21	0
1256.59	0
1256.97	0
1257.35	0
1257.73	0
1258.11	0
1258.49	0
1258.87	0
1259.26	0
1259.64	0
1260.02	0
1260.4	0
1260.78	0
1261.16	0
1261.54	0
1261.92	0
1262.3	0
1262.68	0
1263.06	0
1263.44	0
1263.82	0
1264.21	0
1264.59	0
1264.97	0
1265.35	0
1265.73	0
1266.11	0
1266.49	0
1266.87	0
1267.25	0
1267.63	0
1268.01	0
1268.39	0
1268.77	0
1269.15	0
1269.53	0
1269.91	0
1270.29	0
1270.67	0
1271.05	0
1271.43	0
1271.81	0
1272.19	0
1272.57	0
1272.95	0
1273.33	0
1273.71	0
1274.09	0
1274.47	0
1274.85	0
1275.23	0
1275.61	0
1275.99	0
1276.37	0
1276.75	0
1277.13	0
1277.51	0
1277.89	0
1278.27	0
1278.65	0
1279.03	0
1279.41	0
1279.79	0
1280.17	0
1280.55	0
1280.93	0
1281.31	0
1281.69	0
1282.07	0
1282.45	0
1282.82	0
1283.2	0
1283.58	0
1283.96	0
1284.34	0
1284.72	0
1285.1	0
1285.48	0
1285.86	0
1286.24	0
1286.62	0
1287	0
1287.38	0
1287.75	0
1288.13	0
1288.51	0
1288.89	0
1289.27	0
1289.65	0
1290.03	0
1290.41	0
1290.79	0
1291.17	0
1291.54	0
1291.92	0
1292.3	0
1292.68	0
1293.06	0
1293.44	0
1293.82	0
1294.2	0
1294.57	0
1294.95	0
1295.33	0
1295.71	0
1296.09	0
1296.47	0
1296.85	0
1297.22	0
1297.6	0
1297.98	0
1298.36	0
1298.74	0
1299.12	0
1299.5	0
1299.87	0
1300.25	0
1300.63	0
1301.01	0
1301.39	0
1301.77	0
1302.14	0
1302.52	0
1302.9	0
1303.28	0
1303.66	0
1304.03	0
1304.41	0
1304.79	0
1305.17	0
1305.55	0
1305.92	0
1306.3	0
1306.68	0
1307.06	0
1307.44	0
1307.81	0
1308.19	0
1308.57	0
1308.95	0
1309.32	0
1309.7	0
1310.08	0
1310.46	0
1310.84	0
1311.21	0
1311.59	0
1311.97	0
1312.35	0
1312.72	0
1313.1	0
1313.48	0
1313.86	0
1314.23	0
1314.61	0
1314.99	0
1315.37	0
1315.74	0
1316.12	0
1316.5	0
1316.87	0
1317.25	0
1317.63	0
1318.01	0
1318.38	0
1318.76	0
1319.14	0
1319.52	0
1319.89	0
1320.27	0
1320.65	0
1321.02	0
1321.4	0
1321.78	0
1322.15	0
1322.53	0
1322.91	0
1323.29	0
1323.66	0
1324.04	0
1324.42	0
1324.79	0
1325.17	0
1325.55	0
1325.92	0
1326.3	0
1326.68	0
1327.05	0
1327.43	0
1327.81	0
1328.18	0
1328.56	0
1328.94	0
1329.31	0
1329.69	0
1330.06	0
1330.44	0
1330.82	0
1331.19	0
1331.57	0
1331.95	0
1332.32	0
1332.7	0
1333.08	0
1333.45	0
1333.83	0
1334.2	0
1334.58	0
1334.96	0
1335.33	0
1335.71	0
1336.08	0
1336.46	0
1336.84	0
1337.21	0
1337.59	0
1337.96	0
1338.34	0
1338.72	0
1339.09	0
1339.47	0
1339.84	0
1340.22	0
1340.6	0
1340.97	0
1341.35	0
1341.72	0
1342.1	0
1342.47	0
1342.85	0
1343.23	0
1343.6	0
1343.98	0
1344.35	0
1344.73	0
1345.1	0
1345.48	0
1345.85	0
1346.23	0
1346.61	0
1346.98	0
1347.36	0
1347.73	0
1348.11	0
1348.48	0
1348.86	0
1349.23	0
1349.61	0
1349.98	0
1350.36	0
1350.73	0
1351.11	0
1351.48	0
1351.86	0
1352.23	0
1352.61	0
1352.98	0
1353.36	0
1353.73	0
1354.11	0
1354.48	0
1354.86	0
1355.23	0
1355.61	0
1355.98	0
1356.36	0
1356.73	0
1357.11	0
1357.48	0
1357.86	0
1358.23	0
1358.61	0
1358.98	0
1359.35	0
1359.73	0
1360.1	0
1360.48	0
1360.85	0
1361.23	0
1361.6	0
1361.98	0
1362.35	0
1362.72	0
1363.1	0
1363.47	0
1363.85	0
1364.22	0
1364.6	0
1364.97	0
1365.34	0
1365.72	0
1366.09	0
1366.47	0
1366.84	0
1367.22	0
1367.59	0
1367.96	0
1368.34	0
1368.71	0
1369.09	0
1369.46	0
1369.83	48
1370.21	42
1370.58	48
1370.96	48
1371.33	48
1371.7	47
1372.08	47
1372.45	46
1372.82	49
1373.2	48
1373.57	48
1373.95	48
1374.32	47
1374.69	49
1375.07	47
1375.44	48
1375.81	48
1376.19	47
1376.56	47
1376.93	48
1377.31	47
1377.68	49
1378.05	47
1378.43	48
1378.8	49
1379.17	48
1379.55	50
1379.92	49
1380.29	49
1380.67	49
1381.04	49
1381.41	47
1381.79	48
1382.16	48
1382.53	48
1382.91	48
1383.28	47
1383.65	45
1384.03	48
1384.4	49
1384.77	49
1385.14	47
1385.52	49
1385.89	49
1386.26	49
1386.64	48
1387.01	49
1387.38	48
1387.75	48
1388.13	47
1388.5	48
1388.87	50
1389.25	49
1389.62	49
1389.99	48
1390.36	49
1390.74	48
1391.11	50
1391.48	48
1391.85	49
1392.23	50
1392.6	50
1392.97	49
1393.34	49
1393.72	50
1394.09	48
1394.46	47
1394.83	49
1395.21	49
1395.58	49
1395.95	50
1396.32	49
1396.69	50
1397.07	49
1397.44	50
1397.81	49
1398.18	50
1398.55	52
1398.93	49
1399.3	49
1399.67	50
1400.04	50
1400.41	50
1400.79	49
1401.16	49
1401.53	49
1401.9	51
1402.27	49
1402.65	48
1403.02	49
1403.39	49
1403.76	50
1404.13	50
1404.51	50
1404.88	50
1405.25	49
1405.62	52
1405.99	49
1406.36	50
1406.74	50
1407.11	50
1407.48	50
1407.85	51
1408.22	49
1408.59	43
1408.96	50
1409.34	50
1409.71	51
1410.08	49
1410.45	50
1410.82	50
1411.19	50
1411.56	50
1411.93	51
1412.31	48
1412.68	50
1413.05	51
1413.42	49
1413.79	50
1414.16	51
1414.53	48
1414.9	49
1415.27	51
1415.65	49
1416.02	50
1416.39	52
1416.76	50
1417.13	51
1417.5	52
1417.87	51
1418.24	51
1418.61	51
1418.98	52
1419.35	49
1419.73	51
1420.1	51
1420.47	50
1420.84	51
1421.21	51
1421.58	51
1421.95	50
1422.32	53
1422.69	50
1423.06	52
1423.43	50
1423.8	52
1424.17	52
1424.54	51
1424.91	52
1425.28	51
1425.65	51
1426.02	52
1426.39	51
1426.76	52
1427.14	52
1427.51	47
1427.88	51
1428.25	52
1428.62	52
1428.99	52
1429.36	52
1429.73	52
1430.1	51
1430.47	53
1430.84	51
1431.21	52
1431.58	52
1431.95	51
1432.32	50
1432.69	52
1433.06	51
1433.43	52
1433.8	53
1434.17	52
1434.54	53
1434.91	52
1435.28	52
1435.64	51
1436.01	51
1436.38	52
1436.75	50
1437.12	52
1437.49	53
1437.86	53
1438.23	51
1438.6	52
1438.97	52
1439.34	53
1439.71	52
1440.08	52
1440.45	52
1440.82	53
1441.19	53
1441.56	49
1441.93	53
1442.3	53
1442.67	54
1443.03	54
1443.4	44
1443.77	54
1444.14	53
1444.51	53
1444.88	54
1445.25	51
1445.62	52
1445.99	55
1446.36	54
1446.73	54
1447.09	54
1447.46	54
1447.83	54
1448.2	55
1448.57	54
1448.94	55
1449.31	53
1449.68	55
1450.05	55
1450.41	54
1450.78	54
1451.15	56
1451.52	53
1451.89	56
1452.26	55
1452.63	55
1453	54
1453.36	53
1453.73	54
1454.1	56
1454.47	54
1454.84	55
1455.21	54
1455.57	56
1455.94	56
1456.31	53
1456.68	55
1457.05	56
1457.42	55
1457.78	55
1458.15	57
1458.52	57
1458.89	57
1459.26	56
1459.63	56
1459.99	56
1460.36	57
1460.73	57
1461.1	56
1461.47	56
1461.83	57
1462.2	57
1462.57	56
1462.94	56
1463.31	56
1463.67	59
1464.04	57
1464.41	57
1464.78	55
1465.15	58
1465.51	54
1465.88	58
1466.25	57
1466.62	57
1466.98	58
1467.35	57
1467.72	60
1468.09	58
1468.46	57
1468.82	57
1469.19	59
1469.56	57
1469.93	59
1470.29	58
1470.66	58
1471.03	58
1471.4	59
1471.76	59
1472.13	58
1472.5	58
1472.86	59
1473.23	60
1473.6	59
1473.97	59
1474.33	60
1474.7	61
1475.07	61
1475.44	60
1475.8	60
1476.17	61
1476.54	61
1476.9	62
1477.27	60
1477.64	61
1478	63
1478.37	61
1478.74	63
1479.11	62
1479.47	61
1479.84	63
1480.21	63
1480.57	62
1480.94	62
1481.31	63
1481.67	61
1482.04	62
1482.41	62
1482.77	64
1483.14	62
1483.51	64
1483.87	63
1484.24	65
1484.61	65
1484.97	63
1485.34	64
1485.71	64
1486.07	64
1486.44	60
1486.81	67
1487.17	65
1487.54	66
1487.9	66
1488.27	65
1488.64	65
1489	67
1489.37	64
1489.74	66
1490.1	66
1490.47	67
1490.83	66
1491.2	68
1491.57	65
1491.93	67
1492.3	67
1492.66	66
1493.03	69
1493.4	68
1493.76	67
1494.13	69
1494.49	68
1494.86	68
1495.23	69
1495.59	67
1495.96	68
1496.32	68
1496.69	62
1497.06	69
1497.42	71
1497.79	69
1498.15	65
1498.52	69
1498.88	70
1499.25	72
1499.62	72
1499.98	71
1500.35	69
1500.71	71
1501.08	73
1501.44	70
1501.81	71
1502.17	71
1502.54	72
1502.9	72
1503.27	71
1503.64	74
1504	72
1504.37	74
1504.73	72
1505.1	73
1505.46	73
1505.83	75
1506.19	75
1506.56	74
1506.92	75
1507.29	73
1507.65	75
1508.02	76
1508.38	75
1508.75	75
1509.11	74
1509.48	74
1509.84	76
1510.21	77
1510.57	77
1510.94	77
1511.3	76
1511.67	77
1512.03	78
1512.4	77
1512.76	78
1513.13	79
1513.49	80
1513.85	73
1514.22	79
1514.58	78
1514.95	80
1515.31	80
1515.68	80
1516.04	80
1516.41	79
1516.77	79
1517.14	79
1517.5	81
1517.86	80
1518.23	81
1518.59	80
1518.96	81
1519.32	80
1519.69	80
1520.05	82
1520.41	81
1520.78	81
1521.14	81
1521.51	81
1521.87	81
1522.24	81
1522.6	82
1522.96	82
1523.33	82
1523.69	82
1524.06	82
1524.42	83
1524.78	82
1525.15	83
1525.51	83
1525.88	83
1526.24	82
1526.6	83
1526.97	81
1527.33	84
1527.69	82
1528.06	82
1528.42	83
1528.79	84
1529.15	83
1529.51	84
1529.88	79
1530.24	85
1530.6	86
1530.97	84
1531.33	85
1531.69	83
1532.06	82
1532.42	84
1532.78	83
1533.15	83
1533.51	84
1533.87	82
1534.24	84
1534.6	85
1534.96	83
1535.33	83
1535.69	83
1536.05	83
1536.42	85
1536.78	85
1537.14	85
1537.51	84
1537.87	86
1538.23	84
1538.6	85
1538.96	86
1539.32	85
1539.68	84
1540.05	85
1540.41	85
1540.77	86
1541.14	86
1541.5	85
1541.86	86
1542.23	86
1542.59	85
1542.95	85
1543.31	86
1543.68	87
1544.04	88
1544.4	88
1544.76	86
1545.13	86
1545.49	86
1545.85	87
1546.21	87
1546.58	87
1546.94	87
1547.3	87
1547.66	88
1548.03	89
1548.39	88
1548.75	88
1549.11	89
1549.48	90
1549.84	90
1550.2	90
1550.56	91
1550.93	90
1551.29	90
1551.65	91
1552.01	92
1552.37	91
1552.74	91
1553.1	93
1553.46	92
1553.82	93
1554.18	92
1554.55	94
1554.91	92
1555.27	93
1555.63	94
1555.99	95
1556.36	95
1556.72	93
1557.08	94
1557.44	86
1557.8	93
1558.17	96
1558.53	95
1558.89	93
1559.25	93
1559.61	96
1559.97	99
1560.34	98
1560.7	96
1561.06	96
1561.42	95
1561.78	98
1562.14	98
1562.5	97
1562.87	94
1563.23	93
1563.59	96
1563.95	95
1564.31	93
1564.67	95
1565.03	94
1565.4	93
1565.76	95
1566.12	94
1566.48	96
1566.84	95
1567.2	96
1567.56	90
1567.92	90
1568.29	92
1568.65	91
1569.01	92
1569.37	92
1569.73	89
1570.09	88
1570.45	93
1570.81	91
1571.17	91
1571.53	89
1571.89	90
1572.26	90
1572.62	89
1572.98	89
1573.34	87
1573.7	89
1574.06	89
1574.42	90
1574.78	91
1575.14	89
1575.5	86
1575.86	86
1576.22	86
1576.58	84
1576.94	87
1577.3	87
1577.67	84
1578.03	87
1578.39	86
1578.75	87
1579.11	86
1579.47	84
1579.83	86
1580.19	88
1580.55	88
1580.91	85
1581.27	84
1581.63	86
1581.99	86
1582.35	85
1582.71	86
1583.07	85
1583.43	86
1583.79	84
1584.15	84
1584.51	86
1584.87	86
1585.23	87
1585.59	87
1585.95	86
1586.31	86
1586.67	88
1587.03	87
1587.39	88
1587.75	84
1588.11	84
1588.47	85
1588.83	84
1589.19	87
1589.55	86
1589.91	86
1590.27	87
1590.63	86
1590.99	88
1591.35	86
1591.71	89
1592.07	90
1592.42	90
1592.78	93
1593.14	92
1593.5	89
1593.86	87
1594.22	87
1594.58	87
1594.94	89
1595.3	89
1595.66	89
1596.02	85
1596.38	85
1596.74	86
1597.1	89
1597.46	84
1597.81	86
1598.17	84
1598.53	87
1598.89	87
1599.25	86
1599.61	87
1599.97	84
1600.33	85
1600.69	83
1601.05	85
1601.4	85
1601.76	82
1602.12	83
1602.48	81
1602.84	83
1603.2	81
1603.56	81
1603.92	82
1604.28	81
1604.63	81
1604.99	81
1605.35	84
1605.71	82
1606.07	81
1606.43	81
1606.79	83
1607.14	84
1607.5	82
1607.86	84
1608.22	81
1608.58	79
1608.94	80
1609.29	81
1609.65	87
1610.01	85
1610.37	81
1610.73	81
1611.09	80
1611.44	80
1611.8	82
1612.16	80
1612.52	80
1612.88	79
1613.24	83
1613.59	83
1613.95	84
1614.31	80
1614.67	80
1615.03	80
1615.38	87
1615.74	85
1616.1	80
1616.46	77
1616.82	80
1617.17	78
1617.53	80
1617.89	76
1618.25	78
1618.6	78
1618.96	80
1619.32	78
1619.68	80
1620.04	78
1620.39	78
1620.75	79
1621.11	78
1621.47	83
1621.82	78
1622.18	82
1622.54	77
1622.9	81
1623.25	78
1623.61	78
1623.97	71
1624.33	74
1624.68	76
1625.04	73
1625.4	75
1625.75	74
1626.11	76
1626.47	71
1626.83	72
1627.18	75
1627.54	73
1627.9	75
1628.26	70
1628.61	74
1628.97	71
1629.33	71
1629.68	72
1630.04	70
1630.4	70
1630.75	69
1631.11	67
1631.47	67
1631.83	71
1632.18	69
1632.54	68
1632.9	67
1633.25	67
1633.61	66
1633.97	65
1634.32	65
1634.68	64
1635.04	64
1635.39	66
1635.75	64
1636.11	66
1636.46	63
1636.82	63
1637.18	62
1637.53	63
1637.89	63
1638.25	62
1638.6	60
1638.96	60
1639.31	62
1639.67	61
1640.03	59
1640.38	61
1640.74	59
1641.1	60
1641.45	59
1641.81	58
1642.16	57
1642.52	59
1642.88	60
1643.23	57
1643.59	59
1643.95	56
1644.3	56
1644.66	58
1645.01	58
1645.37	57
1645.73	57
1646.08	59
1646.44	56
1646.79	58
1647.15	58
1647.51	55
1647.86	58
1648.22	57
1648.57	59
1648.93	59
1649.28	56
1649.64	61
1650	60
1650.35	61
1650.71	61
1651.06	61
1651.42	62
1651.77	63
1652.13	61
1652.48	63
1652.84	63
1653.2	63
1653.55	65
1653.91	65
1654.26	68
1654.62	68
1654.97	69
1655.33	69
1655.68	70
1656.04	70
1656.39	72
1656.75	72
1657.1	73
1657.46	74
1657.81	75
1658.17	77
1658.52	74
1658.88	77
1659.23	78
1659.59	80
1659.94	81
1660.3	83
1660.65	84
1661.01	84
1661.36	85
1661.72	84
1662.07	89
1662.43	88
1662.78	90
1663.14	89
1663.49	92
1663.85	95
1664.2	95
1664.56	98
1664.91	96
1665.27	98
1665.62	91
1665.98	104
1666.33	101
1666.69	102
1667.04	104
1667.39	106
1667.75	109
1668.1	109
1668.46	112
1668.81	107
1669.17	113
1669.52	113
1669.88	114
1670.23	117
1670.58	114
1670.94	119
1671.29	119
1671.65	120
1672	124
1672.36	122
1672.71	126
1673.06	125
1673.42	126
1673.77	129
1674.13	126
1674.48	130
1674.83	131
1675.19	131
1675.54	133
1675.9	131
1676.25	137
1676.6	137
1676.96	135
1677.31	139
1677.67	137
1678.02	140
1678.37	142
1678.73	138
1679.08	142
1679.43	142
1679.79	142
1680.14	146
1680.5	142
1680.85	144
1681.2	142
1681.56	143
1681.91	146
1682.26	145
1682.62	145
1682.97	149
1683.32	147
1683.68	148
1684.03	148
1684.38	148
1684.74	151
1685.09	148
1685.44	153
1685.8	151
1686.15	148
1686.5	150
1686.86	149
1687.21	150
1687.56	151
1687.92	146
1688.27	152
1688.62	148
1688.98	149
1689.33	154
1689.68	148
1690.03	150
1690.39	151
1690.74	151
1691.09	154
1691.45	151
1691.8	152
1692.15	151
1692.5	153
1692.86	155
1693.21	152
1693.56	157
1693.92	155
1694.27	152
1694.62	157
1694.97	154
1695.33	158
1695.68	158
1696.03	154
1696.38	158
1696.74	155
1697.09	157
1697.44	159
1697.79	154
1698.15	158
1698.5	153
1698.85	153
1699.2	157
1699.56	154
1699.91	153
1700.26	157
1700.61	154
1700.97	159
1701.32	153
1701.67	156
1702.02	157
1702.37	155
1702.73	159
1703.08	157
1703.43	154
1703.78	158
1704.13	155
1704.49	163
1704.84	161
1705.19	159
1705.54	165
1705.89	166
1706.25	164
1706.6	169
1706.95	165
1707.3	168
1707.65	170
1708.01	168
1708.36	174
1708.71	173
1709.06	171
1709.41	176
1709.76	174
1710.12	180
1710.47	177
1710.82	180
1711.17	183
1711.52	180
1711.87	189
1712.23	188
1712.58	188
1712.93	195
1713.28	192
1713.63	198
1713.98	200
1714.33	202
1714.69	207
1715.04	202
1715.39	209
1715.74	211
1716.09	211
1716.44	218
1716.79	215
1717.14	218
1717.5	221
1717.85	218
1718.2	229
1718.55	225
1718.9	229
1719.25	229
1719.6	234
1719.95	244
1720.3	235
1720.65	244
1721.01	241
1721.36	242
1721.71	252
1722.06	243
1722.41	259
1722.76	246
1723.11	251
1723.46	263
1723.81	255
1724.16	268
1724.51	264
1724.86	264
1725.21	272
1725.56	266
1725.92	283
1726.27	271
1726.62	282
1726.97	276
1727.32	285
1727.67	288
1728.02	280
1728.37	299
1728.72	287
1729.07	294
1729.42	298
1729.77	296
1730.12	299
1730.47	289
1730.82	307
1731.17	295
1731.52	300
1731.87	312
1732.22	306
1732.57	315
1732.92	309
1733.27	320
1733.62	312
1733.97	310
1734.32	328
1734.67	313
1735.02	326
1735.37	323
1735.72	324
1736.07	330
1736.42	323
1736.77	344
1737.12	326
1737.47	317
1737.82	332
1738.17	311
1738.52	325
1738.87	319
1739.22	325
1739.57	320
1739.92	304
1740.27	328
1740.62	306
1740.97	310
1741.32	319
1741.67	300
1742.02	309
1742.37	305
1742.72	297
1743.06	326
1743.41	294
1743.76	284
1744.11	308
1744.46	287
1744.81	277
1745.16	280
1745.51	275
1745.86	293
1746.21	272
1746.56	278
1746.91	310
1747.26	291
1747.6	278
1747.95	290
1748.3	273
1748.65	276
1749	255
1749.35	248
1749.7	266
1750.05	253
1750.4	254
1750.75	258
1751.09	272
1751.44	263
1751.79	247
1752.14	256
1752.49	250
1752.84	256
1753.19	224
1753.54	226
1753.88	242
1754.23	231
1754.58	241
1754.93	226
1755.28	242
1755.63	265
1755.98	224
1756.32	227
1756.67	243
1757.02	222
1757.37	212
1757.72	207
1758.07	215
1758.42	236
1758.76	208
1759.11	224
1759.46	265
1759.81	227
1760.16	226
1760.5	225
1760.85	217
1761.2	219
1761.55	194
1761.9	206
1762.25	255
1762.59	212
1762.94	219
1763.29	273
1763.64	253
1763.99	254
1764.33	224
1764.68	219
1765.03	254
1765.38	209
1765.73	209
1766.07	284
1766.42	246
1766.77	248
1767.12	295
1767.46	298
1767.81	322
1768.16	274
1768.51	276
1768.85	321
1769.2	263
1769.55	261
1769.9	315
1770.25	314
1770.59	320
1770.94	343
1771.29	391
1771.64	354
1771.98	352
1772.33	333
1772.68	333
1773.02	385
1773.37	343
1773.72	360
1774.07	434
1774.41	379
1774.76	485
1775.11	474
1775.46	480
1775.8	605
1776.15	455
1776.5	430
1776.84	460
1777.19	448
1777.54	592
1777.89	534
1778.23	492
1778.58	642
1778.93	650
1779.27	626
1779.62	663
1779.97	621
1780.31	640
1780.66	640
1781.01	597
1781.35	624
1781.7	631
1782.05	665
1782.39	838
1782.74	794
1783.09	808
1783.43	727
1783.78	791
1784.13	923
1784.47	869
1784.82	886
1785.17	870
1785.51	811
1785.86	791
1786.21	680
1786.55	1023
1786.9	1184
1787.25	1107
1787.59	1227
1787.94	1273
1788.29	1162
1788.63	1094
1788.98	937
1789.32	997
1789.67	1187
1790.02	1104
1790.36	1136
1790.71	829
1791.06	1122
1791.4	1967
1791.75	1675
1792.09	1553
1792.44	1649
1792.79	1863
1793.13	2047
1793.48	1845
1793.82	1815
1794.17	1860
1794.52	1711
1794.86	1626
1795.21	1623
1795.55	1492
1795.9	1296
1796.24	1002
1796.59	1360
1796.94	2963
1797.28	2901
1797.63	2295
1797.97	1990
1798.32	1876
1798.66	1946
1799.01	1900
1799.36	2598
1799.7	2004
1800.05	1658
1800.39	2424
1800.74	1874
1801.08	1828
1801.43	4038
1801.77	3230
1802.12	2596
1802.46	1925
1802.81	2453
1803.15	2586
1803.5	2330
1803.85	1979
1804.19	1830
1804.54	1295
1804.88	2322
1805.23	2931
1805.57	1739
1805.92	2462
1806.26	4453
1806.61	3260
1806.95	2304
1807.3	2240
1807.64	4165
1807.99	4566
1808.33	3378
1808.68	2710
1809.02	2048
1809.37	2732
1809.71	5561
1810.06	4531
1810.4	3525
1810.75	2631
1811.09	2248
1811.43	3118
1811.78	6242
1812.12	5361
1812.47	5180
1812.81	4243
1813.16	4153
1813.5	3762
1813.85	3848
1814.19	3732
1814.54	3222
1814.88	3239
1815.23	2696
1815.57	2510
1815.91	1897
1816.26	1374
1816.6	1897
1816.95	5395
1817.29	5462
1817.64	3165
1817.98	4339
1818.32	4833
1818.67	5816
1819.01	5251
1819.36	4773
1819.7	4313
1820.05	3594
1820.39	3677
1820.73	3873
1821.08	4116
1821.42	3817
1821.77	3809
1822.11	3243
1822.45	3068
1822.8	2331
1823.14	2689
1823.49	3867
1823.83	2512
1824.17	2767
1824.52	6480
1824.86	6322
1825.2	4574
1825.55	4352
1825.89	3717
1826.24	3421
1826.58	2612
1826.92	2435
1827.27	5739
1827.61	5013
1827.95	4212
1828.3	3847
1828.64	3636
1828.98	3280
1829.33	2706
1829.67	2171
1830.02	1978
1830.36	5701
1830.7	5307
1831.05	4172
1831.39	5086
1831.73	4668
1832.08	4440
1832.42	3592
1832.76	3601
1833.1	3248
1833.45	3122
1833.79	3149
1834.13	2837
1834.48	2490
1834.82	2998
1835.16	3498
1835.51	3073
1835.85	2917
1836.19	2849
1836.54	2390
1836.88	2323
1837.22	1898
1837.56	1695
1837.91	1356
1838.25	2055
1838.59	2918
1838.94	3659
1839.28	4062
1839.62	2774
1839.96	2084
1840.31	2354
1840.65	2913
1840.99	1794
1841.34	1413
1841.68	2264
1842.02	5008
1842.36	4590
1842.71	3653
1843.05	2840
1843.39	2098
1843.73	1474
1844.08	3325
1844.42	5173
1844.76	3854
1845.1	4228
1845.45	3826
1845.79	3189
1846.13	2170
1846.47	2595
1846.81	3548
1847.16	2655
1847.5	2170
1847.84	1560
1848.18	2903
1848.53	4101
1848.87	3444
1849.21	2720
1849.55	2412
1849.89	2494
1850.24	2029
1850.58	2058
1850.92	1992
1851.26	1850
1851.6	1797
1851.95	1790
1852.29	2081
1852.63	1745
1852.97	1816
1853.31	1564
1853.66	1444
1854	1459
1854.34	1183
1854.68	1104
1855.02	1692
1855.36	2724
1855.71	1899
1856.05	1618
1856.39	1423
1856.73	1364
1857.07	1443
1857.41	1169
1857.76	1254
1858.1	1432
1858.44	1170
1858.78	1157
1859.12	1015
1859.46	1065
1859.8	1031
1860.15	980
1860.49	912
1860.83	1046
1861.17	2131
1861.51	1722
1861.85	1191
1862.19	1005
1862.53	957
1862.88	1084
1863.22	1271
1863.56	1088
1863.9	1039
1864.24	978
1864.58	1252
1864.92	1140
1865.26	1029
1865.6	989
1865.94	893
1866.29	899
1866.63	947
1866.97	874
1867.31	923
1867.65	1011
1867.99	1120
1868.33	1235
1868.67	1032
1869.01	1099
1869.35	1213
1869.69	1753
1870.03	2138
1870.37	1296
1870.72	1585
1871.06	1237
1871.4	1067
1871.74	1065
1872.08	1058
1872.42	1249
1872.76	1708
1873.1	2007
1873.44	1228
1873.78	1051
1874.12	1123
1874.46	1279
1874.8	1467
1875.14	2205
1875.48	1622
1875.82	1242
1876.16	1366
1876.5	1756
1876.84	1428
1877.18	1164
1877.52	1243
1877.86	1164
1878.2	1253
1878.54	1350
1878.88	1287
1879.22	1323
1879.56	1425
1879.9	1457
1880.24	1517
1880.58	1579
1880.92	1551
1881.26	1715
1881.6	1551
1881.94	1536
1882.28	1554
1882.62	1760
1882.96	1992
1883.3	2093
1883.64	1715
1883.98	1505
1884.32	1513
1884.66	1568
1885	1729
1885.34	1654
1885.68	1862
1886.02	1802
1886.36	1762
1886.7	1664
1887.04	1812
1887.38	1785
1887.72	1829
1888.06	1889
1888.39	2067
1888.73	1957
1889.07	2150
1889.41	2384
1889.75	2548
1890.09	1988
1890.43	2302
1890.77	2334
1891.11	1802
1891.45	1655
1891.79	1834
1892.13	1832
1892.47	1890
1892.8	1949
1893.14	2151
1893.48	2014
1893.82	2162
1894.16	2272
1894.5	2195
1894.84	1973
1895.18	2098
1895.52	2174
1895.86	2132
1896.19	2299
1896.53	2257
1896.87	2276
1897.21	2319
1897.55	2364
1897.89	2159
1898.23	2335
1898.57	2432
1898.9	2496
1899.24	2136
1899.58	2298
1899.92	2315
1900.26	2326
1900.6	2445
1900.94	2381
1901.27	2348
1901.61	2387
1901.95	2449
1902.29	2460
1902.63	2384
1902.97	2516
1903.3	2529
1903.64	2459
1903.98	2533
1904.32	2652
1904.66	2515
1905	2380
1905.33	2527
1905.67	2545
1906.01	2490
1906.35	2569
1906.69	2606
1907.02	2633
1907.36	2479
1907.7	2444
1908.04	2466
1908.38	2501
1908.71	2538
1909.05	2574
1909.39	2457
1909.73	2500
1910.07	2535
1910.4	2487
1910.74	2396
1911.08	2441
1911.42	2478
1911.76	2462
1912.09	2431
1912.43	2538
1912.77	2441
1913.11	2409
1913.44	2492
1913.78	2501
1914.12	2417
1914.46	2456
1914.79	2504
1915.13	2388
1915.47	2434
1915.81	2470
1916.14	2340
1916.48	2298
1916.82	2437
1917.16	2350
1917.49	2339
1917.83	2372
1918.17	2408
1918.5	2289
1918.84	2360
1919.18	2385
1919.52	2264
1919.85	2299
1920.19	2356
1920.53	2276
1920.87	2261
1921.2	2371
1921.54	2264
1921.88	2241
1922.21	2265
1922.55	2290
1922.89	2172
1923.22	2273
1923.56	2246
1923.9	2178
1924.23	2174
1924.57	2227
1924.91	2152
1925.25	2163
1925.58	2192
1925.92	2129
1926.26	2132
1926.59	2186
1926.93	2188
1927.27	2062
1927.6	2129
1927.94	2145
1928.28	2074
1928.61	2109
1928.95	2212
1929.29	2048
1929.62	2055
1929.96	2127
1930.29	2127
1930.63	2058
1930.97	2158
1931.3	2108
1931.64	2031
1931.98	2132
1932.31	2130
1932.65	2050
1932.99	2066
1933.32	2083
1933.66	1977
1933.99	2099
1934.33	2099
1934.67	2003
1935	2108
1935.34	2070
1935.67	2018
1936.01	2122
1936.35	2122
1936.68	2008
1937.02	2068
1937.35	2089
1937.69	2053
1938.03	2134
1938.36	2123
1938.7	2038
1939.03	2037
1939.37	2122
1939.7	2015
1940.04	2093
1940.38	2160
1940.71	2034
1941.05	2039
1941.38	2120
1941.72	2081
1942.05	2055
1942.39	2193
1942.73	2121
1943.06	2110
1943.4	2171
1943.73	2202
1944.07	2116
1944.4	2181
1944.74	2178
1945.07	2124
1945.41	2206
1945.74	2246
1946.08	2174
1946.42	2160
1946.75	2289
1947.09	2206
1947.42	2236
1947.76	2286
1948.09	2342
1948.43	2215
1948.76	2360
1949.1	2349
1949.43	2330
1949.77	2294
1950.1	2439
1950.44	2326
1950.77	2318
1951.11	2397
1951.44	2466
1951.78	2336
1952.11	2428
1952.45	2468
1952.78	2460
1953.12	2377
1953.45	2519
1953.79	2502
1954.12	2448
1954.46	2452
1954.79	2583
1955.12	2518
1955.46	2460
1955.79	2557
1956.13	2597
1956.46	2541
1956.8	2498
1957.13	2646
1957.47	2568
1957.8	2557
1958.14	2556
1958.47	2704
1958.8	2557
1959.14	2566
1959.47	2615
1959.81	2700
1960.14	2552
1960.48	2596
1960.81	2678
1961.14	2651
1961.48	2574
1961.81	2710
1962.15	2690
1962.48	2611
1962.82	2603
1963.15	2720
1963.48	2635
1963.82	2600
1964.15	2685
1964.49	2692
1964.82	2645
1965.15	2594
1965.49	2770
1965.82	2676
1966.16	2638
1966.49	2612
1966.82	2722
1967.16	2602
1967.49	2607
1967.83	2656
1968.16	2678
1968.49	2577
1968.83	2576
1969.16	2670
1969.49	2633
1969.83	2552
1970.16	2534
1970.49	2632
1970.83	2539
1971.16	2566
1971.5	2538
1971.83	2629
1972.16	2443
1972.5	2515
1972.83	2543
1973.16	2574
1973.5	2407
1973.83	2447
1974.16	2491
1974.5	2409
1974.83	2410
1975.16	2444
1975.5	2482
1975.83	2295
1976.16	2349
1976.49	2370
1976.83	2416
1977.16	2278
1977.49	2318
1977.83	2355
1978.16	2270
1978.49	2219
1978.83	2276
1979.16	2320
1979.49	2196
1979.83	2149
1980.16	2156
1980.49	2220
1980.82	2100
1981.16	2110
1981.49	2100
1981.82	2037
1982.15	1917
1982.49	2044
1982.82	1980
1983.15	1906
1983.49	1869
1983.82	1915
1984.15	1837
1984.48	1868
1984.82	1879
1985.15	1842
1985.48	1693
1985.81	1803
1986.15	1773
1986.48	1733
1986.81	1671
1987.14	1742
1987.48	1628
1987.81	1615
1988.14	1643
1988.47	1633
1988.81	1495
1989.14	1525
1989.47	1531
1989.8	1501
1990.13	1435
1990.47	1487
1990.8	1450
1991.13	1369
1991.46	1374
1991.79	1403
1992.13	1333
1992.46	1321
1992.79	1307
1993.12	1313
1993.45	1255
1993.79	1266
1994.12	1299
1994.45	1229
1994.78	1164
1995.11	1185
1995.45	1214
1995.78	1141
1996.11	1153
1996.44	1136
1996.77	1126
1997.1	1050
1997.44	1098
1997.77	1076
1998.1	1043
1998.43	1018
1998.76	1043
1999.09	990
1999.43	986
1999.76	998
2000.09	972
2000.42	936
2000.75	954
2001.08	937
2001.41	909
2001.75	934
2002.08	919
2002.41	891
2002.74	891
2003.07	922
2003.4	875
2003.73	877
2004.06	878
2004.4	868
2004.73	829
2005.06	874
2005.39	850
2005.72	837
2006.05	828
2006.38	853
2006.71	827
2007.04	832
2007.37	849
2007.71	848
2008.04	823
2008.37	851
2008.7	849
2009.03	841
2009.36	837
2009.69	856
2010.02	834
2010.35	843
2010.68	862
2011.01	868
2011.34	845
2011.67	860
2012.01	868
2012.34	863
2012.67	866
2013	897
2013.33	878
2013.66	873
2013.99	890
2014.32	919
2014.65	894
2014.98	906
2015.31	908
2015.64	917
2015.97	893
2016.3	923
2016.63	932
2016.96	932
2017.29	916
2017.62	946
2017.95	951
2018.28	943
2018.61	949
2018.94	959
2019.27	958
2019.6	940
2019.93	981
2020.26	979
2020.59	985
2020.92	965
2021.25	990
2021.58	997
2021.91	989
2022.24	990
2022.57	996
2022.9	1007
2023.23	992
2023.56	993
2023.89	1016
2024.22	1019
2024.55	1012
2024.88	1013
2025.21	1032
2025.54	1016
2025.87	1020
2026.2	1026
2026.53	1025
2026.86	1002
2027.19	1008
2027.52	1020
2027.85	1028
2028.18	1003
2028.51	1007
2028.84	1016
2029.16	1022
2029.49	1011
2029.82	1001
2030.15	1024
2030.48	1000
2030.81	996
2031.14	998
2031.47	1013
2031.8	997
2032.13	981
2032.46	984
2032.79	984
2033.12	985
2033.44	979
2033.77	964
2034.1	979
2034.43	967
2034.76	961
2035.09	960
2035.42	960
2035.75	961
2036.08	944
2036.41	945
2036.73	937
2037.06	944
2037.39	933
2037.72	924
2038.05	921
2038.38	921
2038.71	922
2039.04	898
2039.36	894
2039.69	889
2040.02	881
2040.35	882
2040.68	879
2041.01	885
2041.34	877
2041.66	849
2041.99	849
2042.32	856
2042.65	860
2042.98	831
2043.31	827
2043.63	834
2043.96	824
2044.29	814
2044.62	806
2044.95	802
2045.28	797
2045.6	778
2045.93	787
2046.26	787
2046.59	784
2046.92	763
2047.24	766
2047.57	761
2047.9	758
2048.23	746
2048.56	748
2048.88	745
2049.21	729
2049.54	722
2049.87	729
2050.2	728
2050.52	712
2050.85	711
2051.18	710
2051.51	702
2051.83	698
2052.16	702
2052.49	700
2052.82	684
2053.15	679
2053.47	684
2053.8	682
2054.13	678
2054.46	674
2054.78	671
2055.11	667
2055.44	665
2055.77	667
2056.09	658
2056.42	653
2056.75	656
2057.08	660
2057.4	655
2057.73	654
2058.06	647
2058.38	652
2058.71	649
2059.04	645
2059.37	639
2059.69	648
2060.02	638
2060.35	631
2060.67	635
2061	639
2061.33	642
2061.66	636
2061.98	625
2062.31	634
2062.64	623
2062.96	632
2063.29	636
2063.62	629
2063.94	610
2064.27	606
2064.6	618
2064.92	630
2065.25	618
2065.58	619
2065.91	607
2066.23	604
2066.56	611
2066.89	613
2067.21	608
2067.54	603
2067.87	599
2068.19	596
2068.52	600
2068.84	595
2069.17	584
2069.5	586
2069.82	566
2070.15	583
2070.48	586
2070.8	578
2071.13	566
2071.46	555
2071.78	562
2072.11	556
2072.43	560
2072.76	566
2073.09	545
2073.41	536
2073.74	540
2074.07	543
2074.39	535
2074.72	531
2075.04	518
2075.37	514
2075.7	516
2076.02	522
2076.35	517
2076.67	501
2077	493
2077.33	506
2077.65	504
2077.98	499
2078.3	481
2078.63	468
2078.95	475
2079.28	465
2079.61	471
2079.93	472
2080.26	468
2080.58	457
2080.91	457
2081.23	460
2081.56	458
2081.89	447
2082.21	446
2082.54	437
2082.86	434
2083.19	431
2083.51	443
2083.84	432
2084.16	430
2084.49	422
2084.81	419
2085.14	420
2085.46	418
2085.79	412
2086.12	409
2086.44	411
2086.77	405
2087.09	406
2087.42	407
2087.74	404
2088.07	394
2088.39	395
2088.72	392
2089.04	396
2089.37	386
2089.69	386
2090.02	383
2090.34	383
2090.67	384
2090.99	381
2091.32	383
2091.64	369
2091.97	377
2092.29	374
2092.62	380
2092.94	380
2093.26	376
2093.59	376
2093.91	377
2094.24	381
2094.56	374
2094.89	375
2095.21	379
2095.54	377
2095.86	377
2096.19	377
2096.51	374
2096.84	377
2097.16	377
2097.48	375
2097.81	376
2098.13	376
2098.46	378
2098.78	379
2099.11	373
2099.43	378
2099.75	380
2100.08	384
2100.4	381
2100.73	378
2101.05	383
2101.38	385
2101.7	383
2102.02	385
2102.35	384
2102.67	386
2103	386
2103.32	382
2103.64	386
2103.97	385
2104.29	387
2104.62	386
2104.94	376
2105.26	386
2105.59	390
2105.91	386
2106.23	386
2106.56	387
2106.88	390
2107.21	386
2107.53	389
2107.85	386
2108.18	383
2108.5	384
2108.82	386
2109.15	388
2109.47	386
2109.79	382
2110.12	377
2110.44	381
2110.76	382
2111.09	386
2111.41	377
2111.73	377
2112.06	374
2112.38	371
2112.7	370
2113.03	368
2113.35	366
2113.67	368
2114	366
2114.32	356
2114.64	367
2114.97	364
2115.29	355
2115.61	348
2115.94	349
2116.26	346
2116.58	344
2116.91	346
2117.23	342
2117.55	331
2117.87	328
2118.2	336
2118.52	338
2118.84	327
2119.17	322
2119.49	319
2119.81	319
2120.13	327
2120.46	318
2120.78	320
2121.1	313
2121.42	307
2121.75	305
2122.07	313
2122.39	307
2122.72	300
2123.04	289
2123.36	296
2123.68	295
2124.01	293
2124.33	289
2124.65	289
2124.97	291
2125.29	287
2125.62	288
2125.94	283
2126.26	285
2126.58	282
2126.91	280
2127.23	277
2127.55	276
2127.87	280
2128.2	275
2128.52	269
2128.84	273
2129.16	268
2129.48	266
2129.81	267
2130.13	266
2130.45	265
2130.77	260
2131.09	266
2131.42	264
2131.74	261
2132.06	260
2132.38	262
2132.7	259
2133.02	259
2133.35	260
2133.67	261
2133.99	259
2134.31	258
2134.63	259
2134.96	258
2135.28	257
2135.6	259
2135.92	259
2136.24	257
2136.56	257
2136.88	259
2137.21	257
2137.53	258
2137.85	257
2138.17	258
2138.49	256
2138.81	252
2139.13	254
2139.46	254
2139.78	255
2140.1	254
2140.42	255
2140.74	256
2141.06	257
2141.38	253
2141.7	255
2142.03	255
2142.35	253
2142.67	252
2142.99	247
2143.31	250
2143.63	249
2143.95	251
2144.27	252
2144.59	245
2144.91	246
2145.24	244
2145.56	242
2145.88	246
2146.2	243
2146.52	243
2146.84	237
2147.16	239
2147.48	240
2147.8	238
2148.12	235
2148.44	234
2148.76	233
2149.08	234
2149.41	232
2149.73	229
2150.05	224
2150.37	221
2150.69	222
2151.01	225
2151.33	226
2151.65	223
2151.97	221
2152.29	220
2152.61	216
2152.93	217
2153.25	211
2153.57	216
2153.89	212
2154.21	211
2154.53	210
2154.85	210
2155.17	209
2155.49	207
2155.81	205
2156.13	205
2156.45	206
2156.77	205
2157.09	204
2157.41	200
2157.73	198
2158.05	201
2158.37	200
2158.69	202
2159.01	197
2159.33	196
2159.65	194
2159.97	192
2160.29	194
2160.61	193
2160.93	195
2161.25	191
2161.57	189
2161.89	191
2162.21	192
2162.53	192
2162.85	190
2163.17	189
2163.49	185
2163.81	187
2164.13	188
2164.45	187
2164.77	186
2165.08	183
2165.4	185
2165.72	186
2166.04	184
2166.36	184
2166.68	183
2167	184
2167.32	184
2167.64	183
2167.96	183
2168.28	182
2168.6	181
2168.92	179
2169.24	178
2169.55	180
2169.87	179
2170.19	178
2170.51	177
2170.83	176
2171.15	176
2171.47	174
2171.79	173
2172.11	175
2172.43	173
2172.74	174
2173.06	173
2173.38	173
2173.7	172
2174.02	171
2174.34	170
2174.66	169
2174.98	170
2175.29	169
2175.61	167
2175.93	168
2176.25	168
2176.57	168
2176.89	166
2177.21	164
2177.52	164
2177.84	162
2178.16	162
2178.48	161
2178.8	162
2179.12	163
2179.43	159
2179.75	160
2180.07	158
2180.39	153
2180.71	157
2181.03	156
2181.34	157
2181.66	154
2181.98	156
2182.3	154
2182.62	152
2182.93	154
2183.25	152
2183.57	149
2183.89	150
2184.21	151
2184.52	150
2184.84	147
2185.16	149
2185.48	147
2185.8	146
2186.11	146
2186.43	145
2186.75	147
2187.07	147
2187.39	146
2187.7	144
2188.02	140
2188.34	145
2188.66	142
2188.97	144
2189.29	142
2189.61	143
2189.93	143
2190.24	143
2190.56	141
2190.88	142
2191.2	140
2191.51	141
2191.83	139
2192.15	139
2192.47	139
2192.78	139
2193.1	137
2193.42	137
2193.74	136
2194.05	136
2194.37	136
2194.69	136
2195	136
2195.32	135
2195.64	132
2195.96	134
2196.27	135
2196.59	133
2196.91	133
2197.22	130
2197.54	131
2197.86	131
2198.18	130
2198.49	132
2198.81	131
2199.13	130
2199.44	129
2199.76	129
2200.08	130
2200.39	128
2200.71	127
2201.03	126
2201.34	128
2201.66	127
2201.98	127
2202.29	127
2202.61	124
2202.93	125
2203.24	124
2203.56	124
2203.88	124
2204.19	124
2204.51	122
2204.83	121
2205.14	123
2205.46	121
2205.78	122
2206.09	119
2206.41	120
2206.72	119
2207.04	119
2207.36	120
2207.67	118
2207.99	116
2208.31	117
2208.62	117
2208.94	118
2209.25	117
2209.57	118
2209.89	116
2210.2	117
2210.52	116
2210.83	116
2211.15	114
2211.47	117
2211.78	114
2212.1	114
2212.41	115
2212.73	110
2213.05	113
2213.36	113
2213.68	114
2213.99	113
2214.31	113
2214.62	113
2214.94	113
2215.26	112
2215.57	114
2215.89	111
2216.2	111
2216.52	113
2216.83	111
2217.15	112
2217.46	111
2217.78	111
2218.1	112
2218.41	110
2218.73	109
2219.04	112
2219.36	110
2219.67	110
2219.99	111
2220.3	109
2220.62	110
2220.93	109
2221.25	110
2221.56	108
2221.88	109
2222.19	109
2222.51	110
2222.82	109
2223.14	107
2223.45	101
2223.77	107
2224.08	110
2224.4	107
2224.71	107
2225.03	107
2225.34	107
2225.66	107
2225.97	106
2226.29	98
2226.6	106
2226.92	105
2227.23	106
2227.55	105
2227.86	105
2228.18	105
2228.49	103
2228.81	105
2229.12	105
2229.44	105
2229.75	102
2230.07	102
2230.38	103
2230.69	105
2231.01	101
2231.32	101
2231.64	101
2231.95	102
2232.27	101
2232.58	101
2232.9	101
2233.21	101
2233.52	100
2233.84	101
2234.15	101
2234.47	100
2234.78	98
2235.1	99
2235.41	100
2235.72	99
2236.04	99
2236.35	99
2236.67	99
2236.98	98
2237.29	95
2237.61	97
2237.92	97
2238.24	97
2238.55	97
2238.86	97
2239.18	97
2239.49	96
2239.8	95
2240.12	92
2240.43	96
2240.75	95
2241.06	96
2241.37	95
2241.69	93
2242	94
2242.31	93
2242.63	94
2242.94	92
2243.26	94
2243.57	93
2243.88	91
2244.2	94
2244.51	93
2244.82	91
2245.14	94
2245.45	92
2245.76	92
2246.08	92
2246.39	93
2246.7	91
2247.02	91
2247.33	90
2247.64	92
2247.96	90
2248.27	90
2248.58	92
2248.9	91
2249.21	86
2249.52	90
2249.83	90
2250.15	90
2250.46	91
2250.77	89
2251.09	91
2251.4	91
2251.71	89
2252.03	89
2252.34	90
2252.65	89
2252.96	89
2253.28	89
2253.59	88
2253.9	90
2254.21	88
2254.53	89
2254.84	87
2255.15	88
2255.47	83
2255.78	88
2256.09	87
2256.4	88
2256.72	88
2257.03	86
2257.34	86
2257.65	85
2257.97	87
2258.28	86
2258.59	84
2258.9	84
2259.22	85
2259.53	85
2259.84	84
2260.15	86
2260.46	85
2260.78	83
2261.09	84
2261.4	83
2261.71	84
2262.03	83
2262.34	83
2262.65	82
2262.96	83
2263.27	81
2263.59	82
2263.9	82
2264.21	81
2264.52	82
2264.83	82
2265.15	82
2265.46	81
2265.77	81
2266.08	81
2266.39	81
2266.7	81
2267.02	81
2267.33	82
2267.64	81
2267.95	78
2268.26	78
2268.57	79
2268.89	81
2269.2	79
2269.51	80
2269.82	79
2270.13	80
2270.44	80
2270.76	78
2271.07	79
2271.38	76
2271.69	79
2272	75
2272.31	78
2272.62	80
2272.93	78
2273.25	76
2273.56	79
2273.87	78
2274.18	78
2274.49	79
2274.8	78
2275.11	78
2275.42	77
2275.74	78
2276.05	76
2276.36	76
2276.67	76
2276.98	78
2277.29	76
2277.6	76
2277.91	76
2278.22	77
2278.53	75
2278.85	72
2279.16	75
2279.47	76
2279.78	70
2280.09	74
2280.4	75
2280.71	73
2281.02	75
2281.33	74
2281.64	75
2281.95	74
2282.26	74
2282.57	73
2282.88	74
2283.19	74
2283.5	73
2283.82	71
2284.13	74
2284.44	73
2284.75	73
2285.06	73
2285.37	70
2285.68	72
2285.99	73
2286.3	70
2286.61	73
2286.92	72
2287.23	71
2287.54	73
2287.85	71
2288.16	72
2288.47	72
2288.78	71
2289.09	71
2289.4	71
2289.71	71
2290.02	70
2290.33	70
2290.64	72
2290.95	70
2291.26	68
2291.57	71
2291.88	69
2292.19	72
2292.5	67
2292.81	69
2293.12	0
2293.43	0
2293.74	0
2294.05	0
2294.36	0
2294.67	0
2294.98	0
2295.29	0
2295.6	0
2295.91	0
2296.21	0
2296.52	0
2296.83	0
2297.14	0
2297.45	0
2297.76	0
2298.07	0
2298.38	0
2298.69	0
2299	0
2299.31	0
2299.62	0
2299.93	0
2300.24	0
2300.55	0
2300.85	0
2301.16	0
2301.47	0
2301.78	0
2302.09	0
2302.4	0
2302.71	0
2303.02	0
2303.33	0
2303.64	0
2303.94	0
2304.25	0
2304.56	0
2304.87	0
2305.18	0
2305.49	0
2305.8	0
2306.11	0
2306.42	0
2306.72	0
2307.03	0
2307.34	0
2307.65	0
2307.96	0
2308.27	0
2308.58	0
2308.88	0
2309.19	0
2309.5	0
2309.81	0
2310.12	0
2310.43	0
2310.74	0
2311.04	0
2311.35	0
2311.66	0
2311.97	0
2312.28	0
2312.59	0
2312.89	0
2313.2	0
2313.51	0
2313.82	0
2314.13	0
2314.43	0
2314.74	0
2315.05	0
2315.36	0
2315.67	0
2315.97	0
2316.28	0
2316.59	0
2316.9	0
2317.21	0
2317.51	0
2317.82	0
2318.13	0
2318.44	0
2318.75	0
2319.05	0
2319.36	0
2319.67	0
2319.98	0
2320.28	0
2320.59	0
2320.9	0
2321.21	0
2321.51	0
2321.82	0
2322.13	0
2322.44	0
2322.74	0
2323.05	0
2323.36	0
2323.67	0
2323.97	0
2324.28	0
2324.59	0
2324.9	0
2325.2	0
2325.51	0
2325.82	0
2326.13	0
2326.43	0
2326.74	0
2327.05	0
2327.35	0
2327.66	0
2327.97	0
2328.27	0
2328.58	0
2328.89	0
2329.2	0
2329.5	0
2329.81	0
2330.12	0
2330.42	0
2330.73	0
2331.04	0
2331.34	0
2331.65	0
2331.96	0
2332.26	0
2332.57	0
2332.88	0
2333.18	0
2333.49	0
2333.8	0
2334.1	0
2334.41	0
2334.72	0
2335.02	0
2335.33	0
2335.64	0
2335.94	0
2336.25	0
2336.56	0
2336.86	0
2337.17	0
2337.48	0
2337.78	0
2338.09	0
2338.39	0
2338.7	0
2339.01	0
2339.31	0
2339.62	0
2339.93	0
2340.23	0
2340.54	0
2340.84	0
2341.15	0
2341.46	0
2341.76	0
2342.07	0
2342.37	0
2342.68	0
2342.99	0
2343.29	0
2343.6	0
2343.9	0
2344.21	0
2344.51	0
2344.82	0
2345.13	0
2345.43	0
2345.74	0
2346.04	0
2346.35	0
2346.65	0
2346.96	0
2347.27	0
2347.57	0
2347.88	0
2348.18	0
2348.49	0
2348.79	0
2349.1	0
2349.4	0
2349.71	0
2350.01	0
2350.32	0
2350.63	0
2350.93	0
2351.24	0
2351.54	0
2351.85	0
2352.15	0
2352.46	0
2352.76	0
2353.07	0
2353.37	0
2353.68	0
2353.98	0
2354.29	0
2354.59	0
2354.9	0
2355.2	0
2355.51	0
2355.81	0
2356.12	0
2356.42	0
2356.73	0
2357.03	0
2357.34	0
2357.64	0
2357.95	0
2358.25	0
2358.55	0
2358.86	0
2359.16	0
2359.47	0
2359.77	0
2360.08	0
2360.38	0
2360.69	0
2360.99	0
2361.3	0
2361.6	0
2361.9	0
2362.21	0
2362.51	0
2362.82	0
2363.12	0
2363.43	0
2363.73	0
2364.04	0
2364.34	0
2364.64	0
2364.95	0
2365.25	0
2365.56	0
2365.86	0
2366.16	0
2366.47	0
2366.77	0
2367.08	0
2367.38	0
2367.68	0
2367.99	0
2368.29	0
2368.6	0
2368.9	0
2369.2	0
2369.51	0
2369.81	0
2370.12	0
2370.42	0
2370.72	0
2371.03	0
2371.33	0
2371.63	0
2371.94	0
2372.24	0
2372.55	0
2372.85	0
2373.15	0
2373.46	0
2373.76	0
2374.06	0
2374.37	0
2374.67	0
2374.97	0
2375.28	0
2375.58	0
2375.88	0
2376.19	0
2376.49	0
2376.79	0
2377.1	0
2377.4	0
2377.7	0
2378.01	0
2378.31	0
2378.61	0
2378.92	0
2379.22	0
2379.52	0
2379.82	0
2380.13	0
2380.43	0
2380.73	0
2381.04	0
2381.34	0
2381.64	0
2381.95	0
2382.25	0
2382.55	0
2382.85	0
2383.16	0
2383.46	0
2383.76	0
2384.06	0
2384.37	0
2384.67	0
2384.97	0
2385.28	0
2385.58	0
2385.88	0
2386.18	0
2386.49	0
2386.79	0
2387.09	0
2387.39	0
2387.69	0
2388	0
2388.3	0
2388.6	0
2388.9	0
2389.21	0
2389.51	0
2389.81	0
2390.11	0
2390.42	0
2390.72	0
2391.02	0
2391.32	0
2391.62	0
2391.93	0
2392.23	0
2392.53	0
2392.83	0
2393.13	0
2393.44	0
2393.74	0
2394.04	0
2394.34	0
2394.64	0
2394.95	0
2395.25	0
2395.55	0
2395.85	0
2396.15	0
2396.45	0
2396.76	0
2397.06	0
2397.36	0
2397.66	0
2397.96	0
2398.26	0
2398.57	0
2398.87	0
2399.17	0
2399.47	0
2399.77	0
2400.07	0
2400.37	0
2400.68	0
2400.98	0
2401.28	0
2401.58	0
2401.88	0
2402.18	0
2402.48	0
2402.79	0
2403.09	0
2403.39	0
2403.69	0
2403.99	0
2404.29	0
2404.59	0
2404.89	0
2405.19	0
2405.5	0
2405.8	0
2406.1	0
2406.4	0
2406.7	0
2407	0
2407.3	0
2407.6	0
2407.9	0
2408.2	0
2408.5	0
2408.8	0
2409.11	0
2409.41	0
2409.71	0
2410.01	0
2410.31	0
2410.61	0
2410.91	0
2411.21	0
2411.51	0
2411.81	0
2412.11	0
2412.41	0
2412.71	0
2413.01	0
2413.31	0
2413.61	0
2413.91	0
2414.21	0
2414.51	0
2414.81	0
2415.12	0
2415.42	0
2415.72	0
2416.02	0
2416.32	0
2416.62	0
2416.92	0
2417.22	0
2417.52	0
2417.82	0
2418.12	0
2418.42	0
2418.72	0
2419.02	0
2419.32	0
2419.62	0
2419.92	0
2420.22	0
2420.52	0
2420.82	0
2421.12	0
2421.42	0
2421.71	0
2422.01	0
2422.31	0
2422.61	0
2422.91	0
2423.21	0
2423.51	0
2423.81	0
2424.11	0
2424.41	0
2424.71	0
2425.01	0
2425.31	0
2425.61	0
2425.91	0
2426.21	0
2426.51	0
2426.81	0
2427.11	0
2427.41	0
2427.7	0
2428	0
2428.3	0
2428.6	0
2428.9	0
2429.2	0
2429.5	0
2429.8	0
2430.1	0
2430.4	0
2430.7	0
2430.99	0
2431.29	0
2431.59	0
2431.89	0
2432.19	0
2432.49	0
2432.79	0
2433.09	0
2433.39	0
2433.68	0
2433.98	0
2434.28	0
2434.58	0
2434.88	0
2435.18	0
2435.48	0
2435.78	0
2436.07	0
2436.37	0
2436.67	0
2436.97	0
2437.27	0
2437.57	0
2437.86	0
2438.16	0
2438.46	0
2438.76	0
2439.06	0
2439.36	0
2439.66	0
2439.95	0
2440.25	0
2440.55	0
2440.85	0
2441.15	0
2441.44	0
2441.74	0
2442.04	0
2442.34	0
2442.64	0
2442.93	0
2443.23	0
2443.53	0
2443.83	0
2444.13	0
2444.42	0
2444.72	0
2445.02	0
2445.32	0
2445.62	0
2445.91	0
2446.21	0
2446.51	0
2446.81	0
2447.1	0
2447.4	0
2447.7	0
2448	0
2448.3	0
2448.59	0
2448.89	0
2449.19	0
2449.49	0
2449.78	0
2450.08	0
2450.38	0
2450.68	0
2450.97	0
2451.27	0
2451.57	0
2451.87	0
2452.16	0
2452.46	0
2452.76	0
2453.05	0
2453.35	0
2453.65	0
2453.95	0
2454.24	0
2454.54	0
2454.84	0
2455.13	0
2455.43	0
2455.73	0
2456.03	0
2456.32	0
2456.62	0
2456.92	0
2457.21	0
2457.51	0
2457.81	0
2458.1	0
2458.4	0
2458.7	0
2458.99	0
2459.29	0
2459.59	0
2459.88	0
2460.18	0
2460.48	0
2460.77	0
2461.07	0
2461.37	0
2461.66	0
2461.96	0
2462.26	0
2462.55	0
2462.85	0
2463.15	0
2463.44	0
2463.74	0
2464.04	0
2464.33	0
2464.63	0
2464.92	0
2465.22	0
2465.52	0
2465.81	0
2466.11	0
2466.41	0
2466.7	0
2467	0
2467.29	0
2467.59	0
2467.89	0
2468.18	0
2468.48	0
2468.77	0
2469.07	0
2469.37	0
2469.66	0
2469.96	0
2470.25	0
2470.55	0
2470.84	0
2471.14	0
2471.44	0
2471.73	0
2472.03	0
2472.32	0
2472.62	0
2472.91	0
2473.21	0
2473.51	0
2473.8	0
2474.1	0
2474.39	0
2474.69	0
2474.98	0
2475.28	0
2475.57	0
2475.87	0
2476.17	0
2476.46	0
2476.76	0
2477.05	0
2477.35	0
2477.64	0
2477.94	0
2478.23	0
2478.53	0
2478.82	0
2479.12	0
2479.41	0
2479.71	0
2480	0
2480.3	0
2480.59	0
2480.89	0
2481.18	0
2481.48	0
2481.77	0
2482.07	0
2482.36	0
2482.66	0
2482.95	0
2483.25	0
2483.54	0
2483.84	0
2484.13	0
2484.43	0
2484.72	0
2485.02	0
2485.31	0
2485.6	0
2485.9	0
2486.19	0
2486.49	0
2486.78	0
2487.08	0
2487.37	0
2487.67	0
2487.96	0
2488.26	0
2488.55	0
2488.84	0
2489.14	0
2489.43	0
2489.73	0
2490.02	0
2490.32	0
2490.61	0
2490.9	0
2491.2	0
2491.49	0
2491.79	0
2492.08	0
2492.37	0
2492.67	0
2492.96	0
2493.26	0
2493.55	0
2493.84	0
2494.14	0
2494.43	0
2494.73	0
2495.02	0
2495.31	0
2495.61	0
2495.9	0
2496.2	0
2496.49	0
2496.78	0
2497.08	0
2497.37	0
2497.66	0
2497.96	0
2498.25	0
2498.54	0
2498.84	0
2499.13	0
2499.43	0
2499.72	0
2500.01	0
2500.31	0
2500.6	0
2500.89	0
2501.19	0
2501.48	0
2501.77	0
2502.07	0
2502.36	0
2502.65	0
2502.95	0
2503.24	0
2503.53	0
2503.82	0
2504.12	0
2504.41	0
2504.7	0
2505	0
2505.29	0
2505.58	0
2505.88	0
2506.17	0
2506.46	0
2506.76	0
2507.05	0
2507.34	0
2507.63	0
2507.93	0
2508.22	0
2508.51	0
2508.8	0
2509.1	0
2509.39	0
2509.68	0
2509.98	0
2510.27	0
2510.56	0
2510.85	0
2511.15	0
2511.44	0
2511.73	0
2512.02	0
2512.32	0
2512.61	0
2512.9	0
2513.19	0
2513.49	0
2513.78	0
2514.07	0
2514.36	0
2514.65	0
2514.95	0
2515.24	0
2515.53	0
2515.82	0
2516.12	0
2516.41	0
2516.7	0
2516.99	0
2517.28	0
2517.58	0
2517.87	0
2518.16	0
2518.45	0
2518.74	0
2519.04	0
2519.33	0
2519.62	0
2519.91	0
2520.2	0
2520.5	0
2520.79	0
2521.08	0
2521.37	0
2521.66	0
2521.95	0
2522.25	0
2522.54	0
2522.83	0
2523.12	0
2523.41	0
2523.7	0
2523.99	0
2524.29	0
2524.58	0
2524.87	0
2525.16	0
2525.45	0
2525.74	0
2526.03	0
2526.33	0
2526.62	0
2526.91	0
2527.2	0
2527.49	0
2527.78	0
2528.07	0
2528.36	0
2528.66	0
2528.95	0
2529.24	0
2529.53	0
2529.82	0
2530.11	0
2530.4	0
2530.69	0
2530.98	0
2531.27	0
2531.57	0
2531.86	0
2532.15	0
2532.44	0
2532.73	0
2533.02	0
2533.31	0
2533.6	0
2533.89	0
2534.18	0
2534.47	0
2534.76	0
2535.05	0
2535.35	0
2535.64	0
2535.93	0
2536.22	0
2536.51	0
2536.8	0
2537.09	0
2537.38	0
2537.67	0
2537.96	0
2538.25	0
2538.54	0
2538.83	0
2539.12	0
2539.41	0
2539.7	0
2539.99	0
2540.28	0
2540.57	0
2540.86	0
2541.15	0
2541.44	0
2541.73	0
2542.02	0
2542.31	0
2542.6	0
2542.89	0
2543.18	0
2543.47	0
2543.76	0
2544.05	0
2544.34	0
2544.63	0
2544.92	0
2545.21	0
2545.5	0
2545.79	0
2546.08	0
2546.37	0
2546.66	0
2546.95	0
2547.24	0
2547.53	0
2547.82	0
2548.11	0
2548.4	0
2548.69	0
2548.98	0
2549.27	0
2549.55	0
2549.84	0
2550.13	0
2550.42	0
2550.71	0
2551	0
2551.29	0
2551.58	0
2551.87	0
2552.16	0
2552.45	0
2552.74	0
2553.03	0
2553.31	0
2553.6	0
2553.89	0
2554.18	0
2554.47	0
2554.76	0
2555.05	0
2555.34	0
2555.63	0
2555.92	0
2556.2	0
2556.49	0
2556.78	0
2557.07	0
2557.36	0
2557.65	0
2557.94	0
2558.23	0
2558.51	0
2558.8	0
2559.09	0
2559.38	0
2559.67	0
2559.96	0
2560.25	0
2560.53	0
2560.82	0
2561.11	0
2561.4	0
2561.69	0
2561.98	0
2562.27	0
2562.55	0
2562.84	0
2563.13	0
2563.42	0
2563.71	0
2564	0
2564.28	0
2564.57	0
2564.86	0
2565.15	0
2565.44	0
2565.72	0
2566.01	0
2566.3	0
2566.59	0
2566.88	0
2567.16	0
2567.45	0
2567.74	0
2568.03	0
2568.32	0
2568.6	0
2568.89	0
2569.18	0
2569.47	0
2569.75	0

