Source: Spectrum Viewer

Chart: Pulse Spectrum

Series: 
Wavelength (nm)	S (a.u.)
1179.9	0
1180.29	0
1180.68	0
1181.06	0
1181.45	0
1181.83	0
1182.22	0
1182.6	0
1182.99	0
1183.38	0
1183.76	0
1184.15	0
1184.53	0
1184.92	0
1185.3	0
1185.69	0
1186.07	0
1186.46	0
1186.85	0
1187.23	0
1187.62	0
1188	0
1188.39	0
1188.77	0
1189.16	0
1189.54	0
1189.93	0
1190.31	0
1190.7	0
1191.08	0
1191.47	0
1191.85	0
1192.24	0
1192.62	0
1193.01	0
1193.39	0
1193.78	0
1194.16	0
1194.55	0
1194.93	0
1195.32	0
1195.7	0
1196.09	0
1196.47	0
1196.86	0
1197.24	0
1197.63	0
1198.01	0
1198.4	0
1198.78	0
1199.16	0
1199.55	0
1199.93	0
1200.32	0
1200.7	0
1201.09	0
1201.47	0
1201.86	0
1202.24	0
1202.63	0
1203.01	0
1203.39	0
1203.78	0
1204.16	0
1204.55	0
1204.93	0
1205.32	0
1205.7	0
1206.08	0
1206.47	0
1206.85	0
1207.24	0
1207.62	0
1208	0
1208.39	0
1208.77	0
1209.16	0
1209.54	0
1209.92	0
1210.31	0
1210.69	0
1211.08	0
1211.46	0
1211.84	0
1212.23	0
1212.61	0
1213	0
1213.38	0
1213.76	0
1214.15	0
1214.53	0
1214.91	0
1215.3	0
1215.68	0
1216.06	0
1216.45	0
1216.83	0
1217.22	0
1217.6	0
1217.98	0
1218.37	0
1218.75	0
1219.13	0
1219.52	0
1219.9	0
1220.28	0
1220.67	0
1221.05	0
1221.43	0
1221.82	0
1222.2	0
1222.58	0
1222.97	0
1223.35	0
1223.73	0
1224.11	0
1224.5	0
1224.88	0
1225.26	0
1225.65	0
1226.03	0
1226.41	0
1226.8	0
1227.18	0
1227.56	0
1227.94	0
1228.33	0
1228.71	0
1229.09	0
1229.47	0
1229.86	0
1230.24	0
1230.62	0
1231.01	0
1231.39	0
1231.77	0
1232.15	0
1232.54	0
1232.92	0
1233.3	0
1233.68	0
1234.07	0
1234.45	0
1234.83	0
1235.21	0
1235.6	0
1235.98	0
1236.36	0
1236.74	0
1237.12	0
1237.51	0
1237.89	0
1238.27	0
1238.65	0
1239.04	0
1239.42	0
1239.8	0
1240.18	0
1240.56	0
1240.95	0
1241.33	0
1241.71	0
1242.09	0
1242.47	0
1242.86	0
1243.24	0
1243.62	0
1244	0
1244.38	0
1244.77	0
1245.15	0
1245.53	0
1245.91	0
1246.29	0
1246.67	0
1247.06	0
1247.44	0
1247.82	0
1248.2	0
1248.58	0
1248.96	0
1249.34	0
1249.73	0
1250.11	0
1250.49	0
1250.87	0
1251.25	0
1251.63	0
1252.01	0
1252.4	0
1252.78	0
1253.16	0
1253.54	0
1253.92	0
1254.3	0
1254.68	0
1255.06	0
1255.45	0
1255.83	0
1256.21	0
1256.59	0
1256.97	0
1257.35	0
1257.73	0
1258.11	0
1258.49	0
1258.87	0
1259.26	0
1259.64	0
1260.02	0
1260.4	0
1260.78	0
1261.16	0
1261.54	0
1261.92	0
1262.3	0
1262.68	0
1263.06	0
1263.44	0
1263.82	0
1264.21	0
1264.59	0
1264.97	0
1265.35	0
1265.73	0
1266.11	0
1266.49	0
1266.87	0
1267.25	0
1267.63	0
1268.01	0
1268.39	0
1268.77	0
1269.15	0
1269.53	0
1269.91	0
1270.29	0
1270.67	0
1271.05	0
1271.43	0
1271.81	0
1272.19	0
1272.57	0
1272.95	0
1273.33	0
1273.71	0
1274.09	0
1274.47	0
1274.85	0
1275.23	0
1275.61	0
1275.99	0
1276.37	0
1276.75	0
1277.13	0
1277.51	0
1277.89	0
1278.27	0
1278.65	0
1279.03	0
1279.41	0
1279.79	0
1280.17	0
1280.55	0
1280.93	0
1281.31	0
1281.69	0
1282.07	0
1282.45	0
1282.82	0
1283.2	0
1283.58	0
1283.96	0
1284.34	0
1284.72	0
1285.1	0
1285.48	0
1285.86	0
1286.24	0
1286.62	0
1287	0
1287.38	0
1287.75	0
1288.13	0
1288.51	0
1288.89	0
1289.27	0
1289.65	0
1290.03	0
1290.41	0
1290.79	0
1291.17	0
1291.54	0
1291.92	0
1292.3	0
1292.68	0
1293.06	0
1293.44	0
1293.82	0
1294.2	0
1294.57	0
1294.95	0
1295.33	0
1295.71	0
1296.09	0
1296.47	0
1296.85	0
1297.22	0
1297.6	0
1297.98	0
1298.36	0
1298.74	0
1299.12	0
1299.5	0
1299.87	0
1300.25	0
1300.63	0
1301.01	0
1301.39	0
1301.77	0
1302.14	0
1302.52	0
1302.9	0
1303.28	0
1303.66	0
1304.03	0
1304.41	0
1304.79	0
1305.17	0
1305.55	0
1305.92	0
1306.3	0
1306.68	0
1307.06	0
1307.44	0
1307.81	0
1308.19	0
1308.57	0
1308.95	0
1309.32	0
1309.7	0
1310.08	0
1310.46	0
1310.84	0
1311.21	0
1311.59	0
1311.97	0
1312.35	0
1312.72	0
1313.1	0
1313.48	0
1313.86	0
1314.23	0
1314.61	0
1314.99	0
1315.37	0
1315.74	0
1316.12	0
1316.5	0
1316.87	0
1317.25	0
1317.63	0
1318.01	0
1318.38	0
1318.76	0
1319.14	0
1319.52	0
1319.89	0
1320.27	0
1320.65	0
1321.02	0
1321.4	0
1321.78	0
1322.15	0
1322.53	0
1322.91	0
1323.29	0
1323.66	0
1324.04	0
1324.42	0
1324.79	0
1325.17	0
1325.55	0
1325.92	0
1326.3	0
1326.68	0
1327.05	0
1327.43	0
1327.81	0
1328.18	0
1328.56	0
1328.94	0
1329.31	0
1329.69	0
1330.06	0
1330.44	0
1330.82	0
1331.19	0
1331.57	0
1331.95	0
1332.32	0
1332.7	0
1333.08	0
1333.45	0
1333.83	0
1334.2	0
1334.58	0
1334.96	0
1335.33	0
1335.71	0
1336.08	0
1336.46	0
1336.84	0
1337.21	0
1337.59	0
1337.96	0
1338.34	0
1338.72	0
1339.09	0
1339.47	0
1339.84	0
1340.22	0
1340.6	0
1340.97	0
1341.35	0
1341.72	0
1342.1	0
1342.47	0
1342.85	0
1343.23	0
1343.6	0
1343.98	0
1344.35	0
1344.73	0
1345.1	0
1345.48	0
1345.85	0
1346.23	0
1346.61	0
1346.98	0
1347.36	0
1347.73	0
1348.11	0
1348.48	0
1348.86	0
1349.23	0
1349.61	0
1349.98	0
1350.36	0
1350.73	0
1351.11	0
1351.48	0
1351.86	0
1352.23	0
1352.61	0
1352.98	0
1353.36	0
1353.73	0
1354.11	0
1354.48	0
1354.86	0
1355.23	0
1355.61	0
1355.98	0
1356.36	0
1356.73	0
1357.11	0
1357.48	0
1357.86	0
1358.23	0
1358.61	0
1358.98	0
1359.35	0
1359.73	0
1360.1	0
1360.48	0
1360.85	0
1361.23	0
1361.6	0
1361.98	0
1362.35	0
1362.72	0
1363.1	0
1363.47	0
1363.85	0
1364.22	0
1364.6	0
1364.97	0
1365.34	0
1365.72	0
1366.09	0
1366.47	0
1366.84	0
1367.22	0
1367.59	0
1367.96	0
1368.34	0
1368.71	0
1369.09	0
1369.46	0
1369.83	46
1370.21	40
1370.58	45
1370.96	46
1371.33	47
1371.7	45
1372.08	46
1372.45	47
1372.82	45
1373.2	45
1373.57	44
1373.95	46
1374.32	47
1374.69	46
1375.07	46
1375.44	45
1375.81	46
1376.19	46
1376.56	46
1376.93	46
1377.31	46
1377.68	46
1378.05	47
1378.43	46
1378.8	46
1379.17	44
1379.55	44
1379.92	46
1380.29	46
1380.67	47
1381.04	45
1381.41	46
1381.79	44
1382.16	45
1382.53	47
1382.91	47
1383.28	45
1383.65	42
1384.03	46
1384.4	47
1384.77	45
1385.14	45
1385.52	46
1385.89	46
1386.26	47
1386.64	47
1387.01	48
1387.38	46
1387.75	45
1388.13	46
1388.5	45
1388.87	48
1389.25	46
1389.62	47
1389.99	46
1390.36	45
1390.74	47
1391.11	46
1391.48	46
1391.85	48
1392.23	46
1392.6	47
1392.97	47
1393.34	47
1393.72	46
1394.09	44
1394.46	46
1394.83	47
1395.21	46
1395.58	48
1395.95	46
1396.32	47
1396.69	46
1397.07	46
1397.44	46
1397.81	47
1398.18	45
1398.55	46
1398.93	47
1399.3	46
1399.67	47
1400.04	46
1400.41	47
1400.79	46
1401.16	49
1401.53	48
1401.9	48
1402.27	46
1402.65	48
1403.02	47
1403.39	48
1403.76	47
1404.13	47
1404.51	46
1404.88	48
1405.25	48
1405.62	47
1405.99	47
1406.36	47
1406.74	47
1407.11	49
1407.48	48
1407.85	48
1408.22	49
1408.59	43
1408.96	47
1409.34	48
1409.71	49
1410.08	48
1410.45	49
1410.82	47
1411.19	47
1411.56	45
1411.93	49
1412.31	48
1412.68	48
1413.05	47
1413.42	48
1413.79	49
1414.16	48
1414.53	49
1414.9	47
1415.27	49
1415.65	48
1416.02	49
1416.39	49
1416.76	50
1417.13	49
1417.5	50
1417.87	49
1418.24	50
1418.61	49
1418.98	50
1419.35	48
1419.73	49
1420.1	49
1420.47	49
1420.84	48
1421.21	49
1421.58	49
1421.95	50
1422.32	50
1422.69	51
1423.06	50
1423.43	50
1423.8	50
1424.17	51
1424.54	49
1424.91	49
1425.28	51
1425.65	49
1426.02	49
1426.39	49
1426.76	51
1427.14	50
1427.51	46
1427.88	48
1428.25	48
1428.62	50
1428.99	52
1429.36	51
1429.73	50
1430.1	48
1430.47	51
1430.84	48
1431.21	50
1431.58	51
1431.95	49
1432.32	51
1432.69	53
1433.06	50
1433.43	51
1433.8	50
1434.17	50
1434.54	50
1434.91	51
1435.28	50
1435.64	51
1436.01	49
1436.38	52
1436.75	47
1437.12	51
1437.49	52
1437.86	51
1438.23	52
1438.6	51
1438.97	53
1439.34	51
1439.71	53
1440.08	50
1440.45	51
1440.82	53
1441.19	52
1441.56	49
1441.93	52
1442.3	50
1442.67	50
1443.03	51
1443.4	45
1443.77	53
1444.14	52
1444.51	52
1444.88	51
1445.25	54
1445.62	54
1445.99	53
1446.36	51
1446.73	52
1447.09	52
1447.46	54
1447.83	52
1448.2	52
1448.57	52
1448.94	54
1449.31	53
1449.68	54
1450.05	55
1450.41	52
1450.78	53
1451.15	51
1451.52	51
1451.89	53
1452.26	52
1452.63	52
1453	54
1453.36	56
1453.73	55
1454.1	55
1454.47	55
1454.84	53
1455.21	54
1455.57	55
1455.94	56
1456.31	53
1456.68	54
1457.05	54
1457.42	54
1457.78	57
1458.15	56
1458.52	55
1458.89	56
1459.26	56
1459.63	58
1459.99	56
1460.36	56
1460.73	55
1461.1	56
1461.47	56
1461.83	58
1462.2	58
1462.57	58
1462.94	58
1463.31	56
1463.67	59
1464.04	59
1464.41	59
1464.78	57
1465.15	57
1465.51	55
1465.88	58
1466.25	57
1466.62	57
1466.98	58
1467.35	60
1467.72	59
1468.09	59
1468.46	59
1468.82	59
1469.19	59
1469.56	58
1469.93	60
1470.29	60
1470.66	60
1471.03	59
1471.4	60
1471.76	59
1472.13	60
1472.5	59
1472.86	60
1473.23	61
1473.6	59
1473.97	60
1474.33	60
1474.7	62
1475.07	61
1475.44	60
1475.8	60
1476.17	59
1476.54	61
1476.9	60
1477.27	60
1477.64	58
1478	57
1478.37	61
1478.74	62
1479.11	61
1479.47	62
1479.84	59
1480.21	61
1480.57	61
1480.94	62
1481.31	62
1481.67	61
1482.04	64
1482.41	61
1482.77	62
1483.14	62
1483.51	61
1483.87	61
1484.24	62
1484.61	62
1484.97	60
1485.34	61
1485.71	63
1486.07	62
1486.44	57
1486.81	61
1487.17	62
1487.54	62
1487.9	63
1488.27	61
1488.64	63
1489	63
1489.37	62
1489.74	63
1490.1	63
1490.47	64
1490.83	65
1491.2	64
1491.57	65
1491.93	64
1492.3	65
1492.66	63
1493.03	65
1493.4	66
1493.76	64
1494.13	64
1494.49	65
1494.86	65
1495.23	64
1495.59	66
1495.96	65
1496.32	64
1496.69	56
1497.06	65
1497.42	64
1497.79	66
1498.15	62
1498.52	66
1498.88	65
1499.25	64
1499.62	66
1499.98	65
1500.35	64
1500.71	67
1501.08	67
1501.44	65
1501.81	65
1502.17	66
1502.54	67
1502.9	66
1503.27	65
1503.64	64
1504	63
1504.37	64
1504.73	67
1505.1	67
1505.46	65
1505.83	65
1506.19	67
1506.56	68
1506.92	66
1507.29	67
1507.65	64
1508.02	68
1508.38	68
1508.75	69
1509.11	67
1509.48	69
1509.84	66
1510.21	65
1510.57	66
1510.94	68
1511.3	68
1511.67	69
1512.03	68
1512.4	68
1512.76	69
1513.13	69
1513.49	68
1513.85	62
1514.22	65
1514.58	67
1514.95	67
1515.31	69
1515.68	68
1516.04	64
1516.41	69
1516.77	69
1517.14	71
1517.5	71
1517.86	70
1518.23	69
1518.59	70
1518.96	70
1519.32	70
1519.69	70
1520.05	68
1520.41	67
1520.78	69
1521.14	68
1521.51	68
1521.87	65
1522.24	63
1522.6	64
1522.96	64
1523.33	63
1523.69	67
1524.06	63
1524.42	62
1524.78	63
1525.15	64
1525.51	64
1525.88	63
1526.24	62
1526.6	62
1526.97	62
1527.33	63
1527.69	62
1528.06	65
1528.42	63
1528.79	63
1529.15	64
1529.51	63
1529.88	60
1530.24	64
1530.6	64
1530.97	63
1531.33	63
1531.69	64
1532.06	63
1532.42	64
1532.78	64
1533.15	64
1533.51	64
1533.87	63
1534.24	65
1534.6	63
1534.96	63
1535.33	64
1535.69	63
1536.05	64
1536.42	65
1536.78	64
1537.14	65
1537.51	65
1537.87	64
1538.23	64
1538.6	62
1538.96	63
1539.32	63
1539.68	65
1540.05	66
1540.41	65
1540.77	65
1541.14	64
1541.5	65
1541.86	67
1542.23	65
1542.59	63
1542.95	66
1543.31	63
1543.68	64
1544.04	68
1544.4	64
1544.76	64
1545.13	62
1545.49	65
1545.85	65
1546.21	67
1546.58	64
1546.94	65
1547.3	63
1547.66	63
1548.03	64
1548.39	63
1548.75	64
1549.11	65
1549.48	64
1549.84	63
1550.2	63
1550.56	63
1550.93	64
1551.29	66
1551.65	67
1552.01	62
1552.37	61
1552.74	63
1553.1	68
1553.46	69
1553.82	69
1554.18	64
1554.55	66
1554.91	65
1555.27	67
1555.63	71
1555.99	64
1556.36	65
1556.72	61
1557.08	66
1557.44	61
1557.8	69
1558.17	65
1558.53	65
1558.89	68
1559.25	75
1559.61	66
1559.97	67
1560.34	62
1560.7	66
1561.06	72
1561.42	72
1561.78	75
1562.14	68
1562.5	69
1562.87	68
1563.23	83
1563.59	79
1563.95	84
1564.31	75
1564.67	83
1565.03	89
1565.4	87
1565.76	92
1566.12	84
1566.48	79
1566.84	82
1567.2	87
1567.56	90
1567.92	87
1568.29	84
1568.65	77
1569.01	78
1569.37	85
1569.73	87
1570.09	77
1570.45	67
1570.81	73
1571.17	76
1571.53	82
1571.89	83
1572.26	80
1572.62	72
1572.98	86
1573.34	85
1573.7	81
1574.06	81
1574.42	84
1574.78	84
1575.14	79
1575.5	85
1575.86	79
1576.22	76
1576.58	76
1576.94	87
1577.3	91
1577.67	93
1578.03	100
1578.39	95
1578.75	96
1579.11	92
1579.47	93
1579.83	101
1580.19	100
1580.55	95
1580.91	99
1581.27	96
1581.63	104
1581.99	109
1582.35	108
1582.71	100
1583.07	90
1583.43	93
1583.79	106
1584.15	109
1584.51	107
1584.87	97
1585.23	90
1585.59	96
1585.95	110
1586.31	104
1586.67	95
1587.03	89
1587.39	102
1587.75	111
1588.11	112
1588.47	110
1588.83	107
1589.19	114
1589.55	111
1589.91	112
1590.27	107
1590.63	94
1590.99	103
1591.35	110
1591.71	107
1592.07	121
1592.42	104
1592.78	95
1593.14	91
1593.5	115
1593.86	110
1594.22	119
1594.58	120
1594.94	106
1595.3	105
1595.66	121
1596.02	128
1596.38	122
1596.74	126
1597.1	129
1597.46	109
1597.81	130
1598.17	133
1598.53	136
1598.89	131
1599.25	126
1599.61	128
1599.97	142
1600.33	143
1600.69	140
1601.05	130
1601.4	124
1601.76	136
1602.12	147
1602.48	140
1602.84	140
1603.2	116
1603.56	136
1603.92	142
1604.28	148
1604.63	153
1604.99	141
1605.35	143
1605.71	146
1606.07	154
1606.43	147
1606.79	151
1607.14	141
1607.5	143
1607.86	145
1608.22	151
1608.58	155
1608.94	160
1609.29	151
1609.65	152
1610.01	162
1610.37	162
1610.73	165
1611.09	164
1611.44	128
1611.8	162
1612.16	169
1612.52	172
1612.88	173
1613.24	175
1613.59	172
1613.95	180
1614.31	180
1614.67	181
1615.03	181
1615.38	180
1615.74	185
1616.1	184
1616.46	188
1616.82	186
1617.17	191
1617.53	188
1617.89	192
1618.25	192
1618.6	194
1618.96	194
1619.32	194
1619.68	197
1620.04	195
1620.39	198
1620.75	196
1621.11	199
1621.47	197
1621.82	200
1622.18	201
1622.54	196
1622.9	199
1623.25	205
1623.61	208
1623.97	202
1624.33	206
1624.68	212
1625.04	211
1625.4	215
1625.75	213
1626.11	216
1626.47	212
1626.83	215
1627.18	218
1627.54	217
1627.9	221
1628.26	216
1628.61	213
1628.97	206
1629.33	211
1629.68	217
1630.04	223
1630.4	205
1630.75	204
1631.11	201
1631.47	215
1631.83	211
1632.18	202
1632.54	191
1632.9	193
1633.25	200
1633.61	203
1633.97	209
1634.32	211
1634.68	193
1635.04	191
1635.39	215
1635.75	208
1636.11	198
1636.46	192
1636.82	190
1637.18	192
1637.53	203
1637.89	197
1638.25	186
1638.6	188
1638.96	188
1639.31	180
1639.67	194
1640.03	187
1640.38	193
1640.74	174
1641.1	176
1641.45	174
1641.81	184
1642.16	173
1642.52	181
1642.88	170
1643.23	163
1643.59	171
1643.95	164
1644.3	167
1644.66	151
1645.01	152
1645.37	160
1645.73	161
1646.08	150
1646.44	153
1646.79	147
1647.15	158
1647.51	158
1647.86	165
1648.22	155
1648.57	146
1648.93	139
1649.28	145
1649.64	158
1650	141
1650.35	140
1650.71	134
1651.06	134
1651.42	134
1651.77	150
1652.13	132
1652.48	128
1652.84	124
1653.2	127
1653.55	134
1653.91	132
1654.26	124
1654.62	120
1654.97	134
1655.33	132
1655.68	139
1656.04	140
1656.39	139
1656.75	132
1657.1	130
1657.46	133
1657.81	146
1658.17	151
1658.52	143
1658.88	140
1659.23	136
1659.59	143
1659.94	160
1660.3	159
1660.65	142
1661.01	140
1661.36	152
1661.72	168
1662.07	169
1662.43	156
1662.78	160
1663.14	162
1663.49	173
1663.85	186
1664.2	177
1664.56	176
1664.91	179
1665.27	171
1665.62	184
1665.98	201
1666.33	194
1666.69	191
1667.04	201
1667.39	205
1667.75	207
1668.1	198
1668.46	206
1668.81	203
1669.17	216
1669.52	222
1669.88	215
1670.23	235
1670.58	220
1670.94	225
1671.29	246
1671.65	242
1672	264
1672.36	256
1672.71	254
1673.06	243
1673.42	248
1673.77	275
1674.13	266
1674.48	278
1674.83	278
1675.19	279
1675.54	289
1675.9	316
1676.25	315
1676.6	303
1676.96	276
1677.31	305
1677.67	310
1678.02	312
1678.37	301
1678.73	288
1679.08	308
1679.43	325
1679.79	355
1680.14	349
1680.5	319
1680.85	306
1681.2	310
1681.56	311
1681.91	333
1682.26	307
1682.62	311
1682.97	320
1683.32	313
1683.68	342
1684.03	363
1684.38	326
1684.74	327
1685.09	356
1685.44	340
1685.8	349
1686.15	347
1686.5	362
1686.86	340
1687.21	335
1687.56	348
1687.92	369
1688.27	364
1688.62	381
1688.98	347
1689.33	355
1689.68	351
1690.03	376
1690.39	363
1690.74	347
1691.09	343
1691.45	350
1691.8	354
1692.15	358
1692.5	356
1692.86	367
1693.21	353
1693.56	360
1693.92	357
1694.27	343
1694.62	352
1694.97	345
1695.33	343
1695.68	370
1696.03	352
1696.38	363
1696.74	343
1697.09	356
1697.44	365
1697.79	365
1698.15	376
1698.5	345
1698.85	338
1699.2	346
1699.56	331
1699.91	360
1700.26	382
1700.61	343
1700.97	337
1701.32	335
1701.67	338
1702.02	342
1702.37	331
1702.73	337
1703.08	336
1703.43	325
1703.78	364
1704.13	353
1704.49	365
1704.84	340
1705.19	329
1705.54	335
1705.89	341
1706.25	340
1706.6	336
1706.95	337
1707.3	335
1707.65	340
1708.01	341
1708.36	358
1708.71	327
1709.06	331
1709.41	339
1709.76	352
1710.12	381
1710.47	338
1710.82	337
1711.17	341
1711.52	343
1711.87	353
1712.23	351
1712.58	334
1712.93	341
1713.28	329
1713.63	347
1713.98	374
1714.33	342
1714.69	361
1715.04	340
1715.39	371
1715.74	371
1716.09	375
1716.44	394
1716.79	363
1717.14	367
1717.5	376
1717.85	369
1718.2	403
1718.55	381
1718.9	380
1719.25	395
1719.6	398
1719.95	406
1720.3	414
1720.65	419
1721.01	414
1721.36	406
1721.71	468
1722.06	447
1722.41	453
1722.76	431
1723.11	435
1723.46	471
1723.81	471
1724.16	493
1724.51	475
1724.86	480
1725.21	494
1725.56	490
1725.92	524
1726.27	496
1726.62	518
1726.97	499
1727.32	522
1727.67	539
1728.02	506
1728.37	559
1728.72	527
1729.07	570
1729.42	566
1729.77	573
1730.12	592
1730.47	558
1730.82	613
1731.17	586
1731.52	611
1731.87	641
1732.22	616
1732.57	659
1732.92	612
1733.27	655
1733.62	655
1733.97	643
1734.32	707
1734.67	644
1735.02	711
1735.37	685
1735.72	691
1736.07	740
1736.42	664
1736.77	736
1737.12	693
1737.47	707
1737.82	761
1738.17	687
1738.52	762
1738.87	710
1739.22	735
1739.57	791
1739.92	691
1740.27	772
1740.62	738
1740.97	727
1741.32	783
1741.67	699
1742.02	783
1742.37	747
1742.72	706
1743.06	809
1743.41	744
1743.76	722
1744.11	785
1744.46	702
1744.81	771
1745.16	735
1745.51	667
1745.86	780
1746.21	713
1746.56	670
1746.91	774
1747.26	707
1747.6	694
1747.95	731
1748.3	649
1748.65	724
1749	719
1749.35	612
1749.7	668
1750.05	725
1750.4	618
1750.75	698
1751.09	711
1751.44	603
1751.79	679
1752.14	653
1752.49	584
1752.84	685
1753.19	623
1753.54	527
1753.88	633
1754.23	627
1754.58	561
1754.93	619
1755.28	561
1755.63	552
1755.98	626
1756.32	504
1756.67	524
1757.02	621
1757.37	454
1757.72	477
1758.07	520
1758.42	482
1758.76	541
1759.11	448
1759.46	440
1759.81	574
1760.16	397
1760.5	420
1760.85	480
1761.2	370
1761.55	394
1761.9	374
1762.25	391
1762.59	480
1762.94	357
1763.29	362
1763.64	485
1763.99	330
1764.33	325
1764.68	337
1765.03	305
1765.38	332
1765.73	241
1766.07	290
1766.42	420
1766.77	292
1767.12	284
1767.46	368
1767.81	312
1768.16	293
1768.51	241
1768.85	266
1769.2	310
1769.55	190
1769.9	216
1770.25	341
1770.59	298
1770.94	293
1771.29	282
1771.64	313
1771.98	303
1772.33	170
1772.68	181
1773.02	298
1773.37	244
1773.72	241
1774.07	256
1774.41	269
1774.76	388
1775.11	317
1775.46	239
1775.8	415
1776.15	367
1776.5	182
1776.84	248
1777.19	234
1777.54	321
1777.89	359
1778.23	243
1778.58	445
1778.93	579
1779.27	326
1779.62	442
1779.97	478
1780.31	338
1780.66	420
1781.01	371
1781.35	440
1781.7	568
1782.05	381
1782.39	588
1782.74	803
1783.09	535
1783.43	557
1783.78	579
1784.13	581
1784.47	737
1784.82	571
1785.17	599
1785.51	845
1785.86	524
1786.21	511
1786.55	868
1786.9	864
1787.25	962
1787.59	1012
1787.94	1073
1788.29	1239
1788.63	792
1788.98	732
1789.32	942
1789.67	887
1790.02	983
1790.36	1109
1790.71	690
1791.06	972
1791.4	1996
1791.75	1766
1792.09	1829
1792.44	1593
1792.79	1848
1793.13	2640
1793.48	1843
1793.82	2146
1794.17	1983
1794.52	1716
1794.86	2081
1795.21	1498
1795.55	1557
1795.9	1633
1796.24	910
1796.59	1282
1796.94	3348
1797.28	3840
1797.63	3004
1797.97	2248
1798.32	2386
1798.66	2178
1799.01	2028
1799.36	3419
1799.7	2448
1800.05	1989
1800.39	2904
1800.74	2452
1801.08	2208
1801.43	4685
1801.77	4620
1802.12	3987
1802.46	2372
1802.81	3210
1803.15	3637
1803.5	2847
1803.85	2958
1804.19	2263
1804.54	1677
1804.88	2597
1805.23	3746
1805.57	2591
1805.92	2784
1806.26	5829
1806.61	5490
1806.95	3329
1807.3	2870
1807.64	5046
1807.99	6496
1808.33	5000
1808.68	4509
1809.02	2743
1809.37	2794
1809.71	7595
1810.06	6694
1810.4	5926
1810.75	3922
1811.09	3050
1811.43	4075
1811.78	7713
1812.12	8319
1812.47	8093
1812.81	6679
1813.16	6014
1813.5	5955
1813.85	5658
1814.19	5387
1814.54	5475
1814.88	4418
1815.23	4049
1815.57	4298
1815.91	2895
1816.26	2321
1816.6	2065
1816.95	6470
1817.29	8891
1817.64	5708
1817.98	5821
1818.32	7002
1818.67	9568
1819.01	8008
1819.36	7372
1819.7	7182
1820.05	5916
1820.39	5271
1820.73	6472
1821.08	6360
1821.42	5673
1821.77	6505
1822.11	5386
1822.45	4696
1822.8	3985
1823.14	3986
1823.49	5244
1823.83	4749
1824.17	3397
1824.52	8365
1824.86	10332
1825.2	8584
1825.55	6892
1825.89	6062
1826.24	6422
1826.58	4549
1826.92	3504
1827.27	7867
1827.61	9008
1827.95	6929
1828.3	6797
1828.64	6133
1828.98	5422
1829.33	5486
1829.67	3750
1830.02	2777
1830.36	7680
1830.7	9409
1831.05	7015
1831.39	8164
1831.73	8123
1832.08	7275
1832.42	6994
1832.76	6058
1833.1	5624
1833.45	6178
1833.79	5143
1834.13	5252
1834.48	4757
1834.82	4496
1835.16	6093
1835.51	5707
1835.85	5157
1836.19	4974
1836.54	4952
1836.88	4011
1837.22	3628
1837.56	3611
1837.91	2429
1838.25	3006
1838.59	4621
1838.94	5653
1839.28	6968
1839.62	6060
1839.96	3960
1840.31	3516
1840.65	5565
1840.99	3983
1841.34	2579
1841.68	2580
1842.02	7262
1842.36	8196
1842.71	7151
1843.05	5793
1843.39	4383
1843.73	2622
1844.08	3918
1844.42	8057
1844.76	7561
1845.1	7485
1845.45	7428
1845.79	6174
1846.13	4904
1846.47	4230
1846.81	6060
1847.16	6119
1847.5	4356
1847.84	3239
1848.18	4284
1848.53	7201
1848.87	6860
1849.21	5756
1849.55	5014
1849.89	4852
1850.24	4694
1850.58	4207
1850.92	3926
1851.26	4438
1851.6	3476
1851.95	3542
1852.29	4350
1852.63	3608
1852.97	3764
1853.31	3432
1853.66	3030
1854	2870
1854.34	2859
1854.68	2122
1855.02	2280
1855.36	5284
1855.71	4020
1856.05	3447
1856.39	3052
1856.73	2618
1857.07	2903
1857.41	2486
1857.76	2111
1858.1	2765
1858.44	2811
1858.78	2102
1859.12	2081
1859.46	2249
1859.8	1743
1860.15	1934
1860.49	1520
1860.83	1253
1861.17	2885
1861.51	4003
1861.85	2371
1862.19	1864
1862.53	1865
1862.88	1334
1863.22	2263
1863.56	2198
1863.9	1587
1864.24	1708
1864.58	1606
1864.92	1845
1865.26	1785
1865.6	1304
1865.94	1200
1866.29	1250
1866.63	1009
1866.97	1136
1867.31	925
1867.65	870
1867.99	1071
1868.33	1300
1868.67	1098
1869.01	1007
1869.35	953
1869.69	1343
1870.03	3147
1870.37	2185
1870.72	1889
1871.06	2168
1871.4	1188
1871.74	993
1872.08	1049
1872.42	877
1872.76	1278
1873.1	2837
1873.44	1739
1873.78	1109
1874.12	808
1874.46	848
1874.8	1146
1875.14	2034
1875.48	2470
1875.82	1457
1876.16	1138
1876.5	1698
1876.84	1988
1877.18	1310
1877.52	926
1877.86	1020
1878.2	763
1878.54	905
1878.88	1077
1879.22	854
1879.56	945
1879.9	938
1880.24	1107
1880.58	1151
1880.92	1194
1881.26	1268
1881.6	1272
1881.94	1135
1882.28	1021
1882.62	1140
1882.96	1548
1883.3	2085
1883.64	1954
1883.98	1274
1884.32	1091
1884.66	1099
1885	1178
1885.34	1281
1885.68	1188
1886.02	1496
1886.36	1523
1886.7	1288
1887.04	1204
1887.38	1372
1887.72	1330
1888.06	1279
1888.39	1673
1888.73	1586
1889.07	1584
1889.41	1904
1889.75	2740
1890.09	2071
1890.43	1878
1890.77	2609
1891.11	2161
1891.45	1366
1891.79	1343
1892.13	1508
1892.47	1408
1892.8	1424
1893.14	1797
1893.48	1723
1893.82	1752
1894.16	2016
1894.5	2323
1894.84	1706
1895.18	1741
1895.52	1814
1895.86	1808
1896.19	1915
1896.53	2161
1896.87	1941
1897.21	2078
1897.55	2371
1897.89	2136
1898.23	2091
1898.57	2383
1898.9	2692
1899.24	2177
1899.58	2173
1899.92	2216
1900.26	2206
1900.6	2346
1900.94	2539
1901.27	2259
1901.61	2426
1901.95	2520
1902.29	2617
1902.63	2312
1902.97	2678
1903.3	2633
1903.64	2701
1903.98	2555
1904.32	3030
1904.66	2747
1905	2564
1905.33	2670
1905.67	2946
1906.01	2620
1906.35	2893
1906.69	2964
1907.02	3030
1907.36	2888
1907.7	2913
1908.04	2857
1908.38	2864
1908.71	2958
1909.05	3244
1909.39	2926
1909.73	3019
1910.07	3214
1910.4	3140
1910.74	2893
1911.08	3040
1911.42	3144
1911.76	3115
1912.09	3056
1912.43	3369
1912.77	3143
1913.11	3163
1913.44	3248
1913.78	3439
1914.12	3162
1914.46	3401
1914.79	3410
1915.13	3341
1915.47	3326
1915.81	3576
1916.14	3270
1916.48	3212
1916.82	3514
1917.16	3429
1917.49	3365
1917.83	3508
1918.17	3597
1918.5	3253
1918.84	3629
1919.18	3577
1919.52	3399
1919.85	3426
1920.19	3647
1920.53	3397
1920.87	3472
1921.2	3638
1921.54	3489
1921.88	3421
1922.21	3557
1922.55	3664
1922.89	3420
1923.22	3670
1923.56	3539
1923.9	3472
1924.23	3547
1924.57	3571
1924.91	3401
1925.25	3487
1925.58	3567
1925.92	3450
1926.26	3499
1926.59	3703
1926.93	3547
1927.27	3377
1927.6	3482
1927.94	3540
1928.28	3422
1928.61	3423
1928.95	3531
1929.29	3381
1929.62	3363
1929.96	3503
1930.29	3522
1930.63	3312
1930.97	3509
1931.3	3378
1931.64	3292
1931.98	3421
1932.31	3518
1932.65	3266
1932.99	3362
1933.32	3362
1933.66	3207
1933.99	3367
1934.33	3374
1934.67	3264
1935	3341
1935.34	3258
1935.67	3159
1936.01	3241
1936.35	3333
1936.68	3125
1937.02	3159
1937.35	3156
1937.69	3051
1938.03	3167
1938.36	3173
1938.7	3022
1939.03	2953
1939.37	3128
1939.7	2941
1940.04	3071
1940.38	3146
1940.71	2957
1941.05	2922
1941.38	3038
1941.72	2977
1942.05	2852
1942.39	2975
1942.73	2901
1943.06	2844
1943.4	2810
1943.73	2922
1944.07	2807
1944.4	2837
1944.74	2835
1945.07	2770
1945.41	2781
1945.74	2869
1946.08	2783
1946.42	2696
1946.75	2803
1947.09	2766
1947.42	2732
1947.76	2749
1948.09	2874
1948.43	2636
1948.76	2708
1949.1	2728
1949.43	2742
1949.77	2643
1950.1	2766
1950.44	2673
1950.77	2595
1951.11	2661
1951.44	2801
1951.78	2662
1952.11	2585
1952.45	2670
1952.78	2686
1953.12	2650
1953.45	2687
1953.79	2705
1954.12	2634
1954.46	2578
1954.79	2638
1955.12	2712
1955.46	2551
1955.79	2628
1956.13	2663
1956.46	2622
1956.8	2489
1957.13	2680
1957.47	2600
1957.8	2564
1958.14	2451
1958.47	2601
1958.8	2541
1959.14	2471
1959.47	2502
1959.81	2540
1960.14	2502
1960.48	2398
1960.81	2523
1961.14	2509
1961.48	2421
1961.81	2378
1962.15	2518
1962.48	2400
1962.82	2373
1963.15	2448
1963.48	2464
1963.82	2301
1964.15	2376
1964.49	2404
1964.82	2392
1965.15	2263
1965.49	2373
1965.82	2370
1966.16	2303
1966.49	2262
1966.82	2379
1967.16	2324
1967.49	2220
1967.83	2240
1968.16	2326
1968.49	2269
1968.83	2153
1969.16	2259
1969.49	2227
1969.83	2169
1970.16	2117
1970.49	2217
1970.83	2152
1971.16	2075
1971.5	2060
1971.83	2156
1972.16	2072
1972.5	1997
1972.83	2057
1973.16	2072
1973.5	1993
1973.83	1922
1974.16	2031
1974.5	1962
1974.83	1926
1975.16	1879
1975.5	2002
1975.83	1901
1976.16	1808
1976.49	1834
1976.83	1899
1977.16	1828
1977.49	1741
1977.83	1815
1978.16	1776
1978.49	1715
1978.83	1705
1979.16	1788
1979.49	1672
1979.83	1624
1980.16	1604
1980.49	1679
1980.82	1543
1981.16	1560
1981.49	1574
1981.82	1543
1982.15	1485
1982.49	1482
1982.82	1520
1983.15	1469
1983.49	1358
1983.82	1446
1984.15	1409
1984.48	1352
1984.82	1353
1985.15	1367
1985.48	1217
1985.81	1257
1986.15	1273
1986.48	1227
1986.81	1147
1987.14	1177
1987.48	1171
1987.81	1090
1988.14	1144
1988.47	1182
1988.81	1089
1989.14	1029
1989.47	1044
1989.8	1038
1990.13	968
1990.47	994
1990.8	984
1991.13	905
1991.46	913
1991.79	938
1992.13	934
1992.46	832
1992.79	849
1993.12	842
1993.45	775
1993.79	774
1994.12	852
1994.45	811
1994.78	726
1995.11	715
1995.45	780
1995.78	722
1996.11	685
1996.44	691
1996.77	684
1997.1	630
1997.44	670
1997.77	699
1998.1	653
1998.43	589
1998.76	642
1999.09	602
1999.43	590
1999.76	587
2000.09	594
2000.42	528
2000.75	558
2001.08	556
2001.41	523
2001.75	527
2002.08	551
2002.41	506
2002.74	498
2003.07	544
2003.4	512
2003.73	491
2004.06	513
2004.4	522
2004.73	479
2005.06	515
2005.39	520
2005.72	494
2006.05	489
2006.38	546
2006.71	497
2007.04	488
2007.37	516
2007.71	532
2008.04	497
2008.37	543
2008.7	531
2009.03	513
2009.36	515
2009.69	569
2010.02	543
2010.35	524
2010.68	565
2011.01	573
2011.34	528
2011.67	581
2012.01	579
2012.34	574
2012.67	551
2013	601
2013.33	593
2013.66	601
2013.99	601
2014.32	635
2014.65	586
2014.98	611
2015.31	633
2015.64	653
2015.97	604
2016.3	639
2016.63	665
2016.96	647
2017.29	639
2017.62	671
2017.95	689
2018.28	652
2018.61	666
2018.94	691
2019.27	709
2019.6	663
2019.93	706
2020.26	707
2020.59	700
2020.92	678
2021.25	712
2021.58	735
2021.91	699
2022.24	701
2022.57	717
2022.9	755
2023.23	719
2023.56	718
2023.89	742
2024.22	749
2024.55	726
2024.88	737
2025.21	768
2025.54	740
2025.87	732
2026.2	746
2026.53	773
2026.86	718
2027.19	740
2027.52	758
2027.85	763
2028.18	725
2028.51	731
2028.84	757
2029.16	740
2029.49	729
2029.82	723
2030.15	760
2030.48	719
2030.81	712
2031.14	715
2031.47	734
2031.8	728
2032.13	694
2032.46	699
2032.79	713
2033.12	689
2033.44	683
2033.77	679
2034.1	689
2034.43	683
2034.76	662
2035.09	665
2035.42	670
2035.75	680
2036.08	638
2036.41	639
2036.73	641
2037.06	658
2037.39	632
2037.72	608
2038.05	618
2038.38	590
2038.71	609
2039.04	587
2039.36	600
2039.69	565
2040.02	552
2040.35	545
2040.68	541
2041.01	547
2041.34	514
2041.66	482
2041.99	529
2042.32	524
2042.65	499
2042.98	459
2043.31	476
2043.63	413
2043.96	444
2044.29	468
2044.62	471
2044.95	486
2045.28	465
2045.6	433
2045.93	455
2046.26	454
2046.59	455
2046.92	417
2047.24	416
2047.57	393
2047.9	395
2048.23	402
2048.56	415
2048.88	389
2049.21	379
2049.54	373
2049.87	400
2050.2	380
2050.52	364
2050.85	356
2051.18	359
2051.51	337
2051.83	343
2052.16	348
2052.49	338
2052.82	319
2053.15	327
2053.47	323
2053.8	317
2054.13	310
2054.46	295
2054.78	306
2055.11	300
2055.44	297
2055.77	305
2056.09	291
2056.42	284
2056.75	269
2057.08	274
2057.4	265
2057.73	265
2058.06	276
2058.38	266
2058.71	265
2059.04	276
2059.37	283
2059.69	280
2060.02	272
2060.35	272
2060.67	276
2061	280
2061.33	270
2061.66	272
2061.98	251
2062.31	260
2062.64	259
2062.96	270
2063.29	269
2063.62	267
2063.94	254
2064.27	260
2064.6	260
2064.92	266
2065.25	262
2065.58	256
2065.91	242
2066.23	248
2066.56	257
2066.89	257
2067.21	251
2067.54	247
2067.87	248
2068.19	251
2068.52	257
2068.84	253
2069.17	250
2069.5	249
2069.82	250
2070.15	250
2070.48	253
2070.8	249
2071.13	249
2071.46	246
2071.78	249
2072.11	248
2072.43	247
2072.76	247
2073.09	242
2073.41	245
2073.74	240
2074.07	244
2074.39	242
2074.72	241
2075.04	239
2075.37	236
2075.7	229
2076.02	235
2076.35	232
2076.67	227
2077	221
2077.33	222
2077.65	232
2077.98	226
2078.3	225
2078.63	223
2078.95	214
2079.28	223
2079.61	223
2079.93	217
2080.26	214
2080.58	211
2080.91	214
2081.23	218
2081.56	217
2081.89	216
2082.21	202
2082.54	202
2082.86	207
2083.19	208
2083.51	207
2083.84	208
2084.16	193
2084.49	201
2084.81	195
2085.14	201
2085.46	197
2085.79	198
2086.12	197
2086.44	193
2086.77	197
2087.09	196
2087.42	196
2087.74	194
2088.07	190
2088.39	188
2088.72	189
2089.04	194
2089.37	191
2089.69	188
2090.02	191
2090.34	189
2090.67	188
2090.99	185
2091.32	187
2091.64	173
2091.97	179
2092.29	181
2092.62	185
2092.94	183
2093.26	175
2093.59	177
2093.91	178
2094.24	185
2094.56	175
2094.89	184
2095.21	177
2095.54	179
2095.86	181
2096.19	173
2096.51	177
2096.84	172
2097.16	171
2097.48	172
2097.81	173
2098.13	177
2098.46	172
2098.78	175
2099.11	170
2099.43	171
2099.75	173
2100.08	170
2100.4	165
2100.73	167
2101.05	160
2101.38	156
2101.7	163
2102.02	167
2102.35	165
2102.67	162
2103	166
2103.32	164
2103.64	168
2103.97	165
2104.29	163
2104.62	155
2104.94	158
2105.26	159
2105.59	160
2105.91	158
2106.23	159
2106.56	151
2106.88	151
2107.21	155
2107.53	158
2107.85	151
2108.18	150
2108.5	148
2108.82	150
2109.15	150
2109.47	149
2109.79	142
2110.12	139
2110.44	142
2110.76	147
2111.09	142
2111.41	142
2111.73	141
2112.06	140
2112.38	140
2112.7	141
2113.03	142
2113.35	133
2113.67	135
2114	137
2114.32	137
2114.64	137
2114.97	135
2115.29	132
2115.61	133
2115.94	133
2116.26	132
2116.58	134
2116.91	134
2117.23	135
2117.55	126
2117.87	131
2118.2	131
2118.52	132
2118.84	129
2119.17	129
2119.49	130
2119.81	130
2120.13	130
2120.46	129
2120.78	129
2121.1	130
2121.42	124
2121.75	129
2122.07	129
2122.39	128
2122.72	128
2123.04	129
2123.36	129
2123.68	129
2124.01	128
2124.33	128
2124.65	129
2124.97	129
2125.29	129
2125.62	128
2125.94	129
2126.26	128
2126.58	129
2126.91	128
2127.23	130
2127.55	123
2127.87	128
2128.2	128
2128.52	129
2128.84	130
2129.16	127
2129.48	128
2129.81	128
2130.13	128
2130.45	127
2130.77	127
2131.09	127
2131.42	126
2131.74	126
2132.06	126
2132.38	125
2132.7	125
2133.02	126
2133.35	125
2133.67	125
2133.99	123
2134.31	123
2134.63	124
2134.96	121
2135.28	124
2135.6	122
2135.92	120
2136.24	123
2136.56	121
2136.88	120
2137.21	121
2137.53	119
2137.85	119
2138.17	118
2138.49	118
2138.81	113
2139.13	115
2139.46	116
2139.78	116
2140.1	115
2140.42	113
2140.74	115
2141.06	113
2141.38	112
2141.7	112
2142.03	113
2142.35	110
2142.67	112
2142.99	110
2143.31	109
2143.63	109
2143.95	110
2144.27	108
2144.59	108
2144.91	105
2145.24	106
2145.56	105
2145.88	106
2146.2	104
2146.52	105
2146.84	106
2147.16	105
2147.48	106
2147.8	105
2148.12	104
2148.44	104
2148.76	104
2149.08	103
2149.41	104
2149.73	102
2150.05	103
2150.37	104
2150.69	101
2151.01	103
2151.33	103
2151.65	102
2151.97	104
2152.29	100
2152.61	102
2152.93	101
2153.25	98
2153.57	104
2153.89	100
2154.21	100
2154.53	101
2154.85	99
2155.17	101
2155.49	101
2155.81	100
2156.13	99
2156.45	99
2156.77	98
2157.09	99
2157.41	97
2157.73	98
2158.05	100
2158.37	98
2158.69	98
2159.01	98
2159.33	99
2159.65	98
2159.97	98
2160.29	98
2160.61	98
2160.93	97
2161.25	98
2161.57	98
2161.89	96
2162.21	97
2162.53	98
2162.85	98
2163.17	97
2163.49	93
2163.81	98
2164.13	96
2164.45	96
2164.77	94
2165.08	92
2165.4	94
2165.72	94
2166.04	94
2166.36	95
2166.68	94
2167	94
2167.32	92
2167.64	93
2167.96	92
2168.28	92
2168.6	93
2168.92	94
2169.24	92
2169.55	92
2169.87	92
2170.19	90
2170.51	90
2170.83	90
2171.15	91
2171.47	90
2171.79	91
2172.11	90
2172.43	90
2172.74	88
2173.06	90
2173.38	87
2173.7	89
2174.02	87
2174.34	88
2174.66	86
2174.98	87
2175.29	87
2175.61	88
2175.93	90
2176.25	87
2176.57	88
2176.89	88
2177.21	87
2177.52	85
2177.84	86
2178.16	86
2178.48	85
2178.8	84
2179.12	84
2179.43	84
2179.75	86
2180.07	84
2180.39	79
2180.71	83
2181.03	84
2181.34	83
2181.66	84
2181.98	84
2182.3	83
2182.62	82
2182.93	83
2183.25	83
2183.57	80
2183.89	81
2184.21	82
2184.52	83
2184.84	81
2185.16	82
2185.48	81
2185.8	81
2186.11	79
2186.43	81
2186.75	81
2187.07	80
2187.39	82
2187.7	79
2188.02	76
2188.34	80
2188.66	76
2188.97	78
2189.29	78
2189.61	79
2189.93	79
2190.24	82
2190.56	78
2190.88	79
2191.2	79
2191.51	79
2191.83	78
2192.15	79
2192.47	77
2192.78	78
2193.1	80
2193.42	78
2193.74	78
2194.05	77
2194.37	77
2194.69	78
2195	76
2195.32	76
2195.64	73
2195.96	75
2196.27	77
2196.59	76
2196.91	77
2197.22	71
2197.54	75
2197.86	75
2198.18	75
2198.49	73
2198.81	76
2199.13	74
2199.44	76
2199.76	74
2200.08	75
2200.39	75
2200.71	75
2201.03	73
2201.34	73
2201.66	74
2201.98	75
2202.29	74
2202.61	75
2202.93	74
2203.24	75
2203.56	72
2203.88	73
2204.19	74
2204.51	74
2204.83	73
2205.14	74
2205.46	73
2205.78	72
2206.09	73
2206.41	72
2206.72	74
2207.04	70
2207.36	71
2207.67	73
2207.99	71
2208.31	74
2208.62	72
2208.94	72
2209.25	70
2209.57	71
2209.89	72
2210.2	72
2210.52	69
2210.83	70
2211.15	69
2211.47	71
2211.78	70
2212.1	69
2212.41	71
2212.73	68
2213.05	69
2213.36	70
2213.68	69
2213.99	69
2214.31	70
2214.62	69
2214.94	69
2215.26	69
2215.57	68
2215.89	70
2216.2	69
2216.52	68
2216.83	67
2217.15	70
2217.46	68
2217.78	67
2218.1	68
2218.41	68
2218.73	67
2219.04	65
2219.36	68
2219.67	66
2219.99	66
2220.3	67
2220.62	65
2220.93	66
2221.25	67
2221.56	68
2221.88	67
2222.19	67
2222.51	65
2222.82	66
2223.14	66
2223.45	57
2223.77	66
2224.08	65
2224.4	65
2224.71	65
2225.03	64
2225.34	67
2225.66	65
2225.97	65
2226.29	58
2226.6	64
2226.92	65
2227.23	64
2227.55	65
2227.86	64
2228.18	66
2228.49	66
2228.81	65
2229.12	64
2229.44	65
2229.75	65
2230.07	64
2230.38	64
2230.69	64
2231.01	65
2231.32	63
2231.64	63
2231.95	65
2232.27	63
2232.58	64
2232.9	64
2233.21	63
2233.52	64
2233.84	65
2234.15	64
2234.47	64
2234.78	62
2235.1	65
2235.41	63
2235.72	63
2236.04	62
2236.35	64
2236.67	63
2236.98	63
2237.29	61
2237.61	64
2237.92	61
2238.24	64
2238.55	62
2238.86	63
2239.18	63
2239.49	63
2239.8	61
2240.12	59
2240.43	63
2240.75	62
2241.06	62
2241.37	62
2241.69	63
2242	62
2242.31	62
2242.63	61
2242.94	62
2243.26	60
2243.57	62
2243.88	58
2244.2	61
2244.51	60
2244.82	62
2245.14	61
2245.45	60
2245.76	60
2246.08	60
2246.39	59
2246.7	60
2247.02	60
2247.33	60
2247.64	60
2247.96	60
2248.27	60
2248.58	60
2248.9	59
2249.21	54
2249.52	58
2249.83	57
2250.15	57
2250.46	59
2250.77	60
2251.09	60
2251.4	58
2251.71	59
2252.03	59
2252.34	59
2252.65	59
2252.96	59
2253.28	58
2253.59	60
2253.9	59
2254.21	59
2254.53	58
2254.84	58
2255.15	58
2255.47	55
2255.78	56
2256.09	58
2256.4	59
2256.72	59
2257.03	57
2257.34	56
2257.65	57
2257.97	58
2258.28	56
2258.59	57
2258.9	57
2259.22	58
2259.53	57
2259.84	56
2260.15	56
2260.46	57
2260.78	57
2261.09	55
2261.4	57
2261.71	56
2262.03	58
2262.34	56
2262.65	57
2262.96	55
2263.27	55
2263.59	55
2263.9	56
2264.21	55
2264.52	57
2264.83	55
2265.15	55
2265.46	56
2265.77	56
2266.08	56
2266.39	55
2266.7	54
2267.02	54
2267.33	56
2267.64	54
2267.95	54
2268.26	54
2268.57	55
2268.89	54
2269.2	55
2269.51	55
2269.82	55
2270.13	55
2270.44	54
2270.76	54
2271.07	55
2271.38	51
2271.69	53
2272	51
2272.31	54
2272.62	54
2272.93	53
2273.25	50
2273.56	55
2273.87	55
2274.18	54
2274.49	54
2274.8	53
2275.11	54
2275.42	53
2275.74	53
2276.05	54
2276.36	53
2276.67	53
2276.98	53
2277.29	54
2277.6	54
2277.91	53
2278.22	52
2278.53	52
2278.85	50
2279.16	53
2279.47	52
2279.78	48
2280.09	55
2280.4	52
2280.71	53
2281.02	52
2281.33	55
2281.64	53
2281.95	52
2282.26	52
2282.57	50
2282.88	52
2283.19	52
2283.5	53
2283.82	52
2284.13	52
2284.44	53
2284.75	51
2285.06	51
2285.37	48
2285.68	51
2285.99	52
2286.3	51
2286.61	52
2286.92	52
2287.23	51
2287.54	51
2287.85	51
2288.16	50
2288.47	51
2288.78	50
2289.09	51
2289.4	52
2289.71	50
2290.02	51
2290.33	51
2290.64	51
2290.95	51
2291.26	52
2291.57	49
2291.88	49
2292.19	51
2292.5	49
2292.81	50
2293.12	0
2293.43	0
2293.74	0
2294.05	0
2294.36	0
2294.67	0
2294.98	0
2295.29	0
2295.6	0
2295.91	0
2296.21	0
2296.52	0
2296.83	0
2297.14	0
2297.45	0
2297.76	0
2298.07	0
2298.38	0
2298.69	0
2299	0
2299.31	0
2299.62	0
2299.93	0
2300.24	0
2300.55	0
2300.85	0
2301.16	0
2301.47	0
2301.78	0
2302.09	0
2302.4	0
2302.71	0
2303.02	0
2303.33	0
2303.64	0
2303.94	0
2304.25	0
2304.56	0
2304.87	0
2305.18	0
2305.49	0
2305.8	0
2306.11	0
2306.42	0
2306.72	0
2307.03	0
2307.34	0
2307.65	0
2307.96	0
2308.27	0
2308.58	0
2308.88	0
2309.19	0
2309.5	0
2309.81	0
2310.12	0
2310.43	0
2310.74	0
2311.04	0
2311.35	0
2311.66	0
2311.97	0
2312.28	0
2312.59	0
2312.89	0
2313.2	0
2313.51	0
2313.82	0
2314.13	0
2314.43	0
2314.74	0
2315.05	0
2315.36	0
2315.67	0
2315.97	0
2316.28	0
2316.59	0
2316.9	0
2317.21	0
2317.51	0
2317.82	0
2318.13	0
2318.44	0
2318.75	0
2319.05	0
2319.36	0
2319.67	0
2319.98	0
2320.28	0
2320.59	0
2320.9	0
2321.21	0
2321.51	0
2321.82	0
2322.13	0
2322.44	0
2322.74	0
2323.05	0
2323.36	0
2323.67	0
2323.97	0
2324.28	0
2324.59	0
2324.9	0
2325.2	0
2325.51	0
2325.82	0
2326.13	0
2326.43	0
2326.74	0
2327.05	0
2327.35	0
2327.66	0
2327.97	0
2328.27	0
2328.58	0
2328.89	0
2329.2	0
2329.5	0
2329.81	0
2330.12	0
2330.42	0
2330.73	0
2331.04	0
2331.34	0
2331.65	0
2331.96	0
2332.26	0
2332.57	0
2332.88	0
2333.18	0
2333.49	0
2333.8	0
2334.1	0
2334.41	0
2334.72	0
2335.02	0
2335.33	0
2335.64	0
2335.94	0
2336.25	0
2336.56	0
2336.86	0
2337.17	0
2337.48	0
2337.78	0
2338.09	0
2338.39	0
2338.7	0
2339.01	0
2339.31	0
2339.62	0
2339.93	0
2340.23	0
2340.54	0
2340.84	0
2341.15	0
2341.46	0
2341.76	0
2342.07	0
2342.37	0
2342.68	0
2342.99	0
2343.29	0
2343.6	0
2343.9	0
2344.21	0
2344.51	0
2344.82	0
2345.13	0
2345.43	0
2345.74	0
2346.04	0
2346.35	0
2346.65	0
2346.96	0
2347.27	0
2347.57	0
2347.88	0
2348.18	0
2348.49	0
2348.79	0
2349.1	0
2349.4	0
2349.71	0
2350.01	0
2350.32	0
2350.63	0
2350.93	0
2351.24	0
2351.54	0
2351.85	0
2352.15	0
2352.46	0
2352.76	0
2353.07	0
2353.37	0
2353.68	0
2353.98	0
2354.29	0
2354.59	0
2354.9	0
2355.2	0
2355.51	0
2355.81	0
2356.12	0
2356.42	0
2356.73	0
2357.03	0
2357.34	0
2357.64	0
2357.95	0
2358.25	0
2358.55	0
2358.86	0
2359.16	0
2359.47	0
2359.77	0
2360.08	0
2360.38	0
2360.69	0
2360.99	0
2361.3	0
2361.6	0
2361.9	0
2362.21	0
2362.51	0
2362.82	0
2363.12	0
2363.43	0
2363.73	0
2364.04	0
2364.34	0
2364.64	0
2364.95	0
2365.25	0
2365.56	0
2365.86	0
2366.16	0
2366.47	0
2366.77	0
2367.08	0
2367.38	0
2367.68	0
2367.99	0
2368.29	0
2368.6	0
2368.9	0
2369.2	0
2369.51	0
2369.81	0
2370.12	0
2370.42	0
2370.72	0
2371.03	0
2371.33	0
2371.63	0
2371.94	0
2372.24	0
2372.55	0
2372.85	0
2373.15	0
2373.46	0
2373.76	0
2374.06	0
2374.37	0
2374.67	0
2374.97	0
2375.28	0
2375.58	0
2375.88	0
2376.19	0
2376.49	0
2376.79	0
2377.1	0
2377.4	0
2377.7	0
2378.01	0
2378.31	0
2378.61	0
2378.92	0
2379.22	0
2379.52	0
2379.82	0
2380.13	0
2380.43	0
2380.73	0
2381.04	0
2381.34	0
2381.64	0
2381.95	0
2382.25	0
2382.55	0
2382.85	0
2383.16	0
2383.46	0
2383.76	0
2384.06	0
2384.37	0
2384.67	0
2384.97	0
2385.28	0
2385.58	0
2385.88	0
2386.18	0
2386.49	0
2386.79	0
2387.09	0
2387.39	0
2387.69	0
2388	0
2388.3	0
2388.6	0
2388.9	0
2389.21	0
2389.51	0
2389.81	0
2390.11	0
2390.42	0
2390.72	0
2391.02	0
2391.32	0
2391.62	0
2391.93	0
2392.23	0
2392.53	0
2392.83	0
2393.13	0
2393.44	0
2393.74	0
2394.04	0
2394.34	0
2394.64	0
2394.95	0
2395.25	0
2395.55	0
2395.85	0
2396.15	0
2396.45	0
2396.76	0
2397.06	0
2397.36	0
2397.66	0
2397.96	0
2398.26	0
2398.57	0
2398.87	0
2399.17	0
2399.47	0
2399.77	0
2400.07	0
2400.37	0
2400.68	0
2400.98	0
2401.28	0
2401.58	0
2401.88	0
2402.18	0
2402.48	0
2402.79	0
2403.09	0
2403.39	0
2403.69	0
2403.99	0
2404.29	0
2404.59	0
2404.89	0
2405.19	0
2405.5	0
2405.8	0
2406.1	0
2406.4	0
2406.7	0
2407	0
2407.3	0
2407.6	0
2407.9	0
2408.2	0
2408.5	0
2408.8	0
2409.11	0
2409.41	0
2409.71	0
2410.01	0
2410.31	0
2410.61	0
2410.91	0
2411.21	0
2411.51	0
2411.81	0
2412.11	0
2412.41	0
2412.71	0
2413.01	0
2413.31	0
2413.61	0
2413.91	0
2414.21	0
2414.51	0
2414.81	0
2415.12	0
2415.42	0
2415.72	0
2416.02	0
2416.32	0
2416.62	0
2416.92	0
2417.22	0
2417.52	0
2417.82	0
2418.12	0
2418.42	0
2418.72	0
2419.02	0
2419.32	0
2419.62	0
2419.92	0
2420.22	0
2420.52	0
2420.82	0
2421.12	0
2421.42	0
2421.71	0
2422.01	0
2422.31	0
2422.61	0
2422.91	0
2423.21	0
2423.51	0
2423.81	0
2424.11	0
2424.41	0
2424.71	0
2425.01	0
2425.31	0
2425.61	0
2425.91	0
2426.21	0
2426.51	0
2426.81	0
2427.11	0
2427.41	0
2427.7	0
2428	0
2428.3	0
2428.6	0
2428.9	0
2429.2	0
2429.5	0
2429.8	0
2430.1	0
2430.4	0
2430.7	0
2430.99	0
2431.29	0
2431.59	0
2431.89	0
2432.19	0
2432.49	0
2432.79	0
2433.09	0
2433.39	0
2433.68	0
2433.98	0
2434.28	0
2434.58	0
2434.88	0
2435.18	0
2435.48	0
2435.78	0
2436.07	0
2436.37	0
2436.67	0
2436.97	0
2437.27	0
2437.57	0
2437.86	0
2438.16	0
2438.46	0
2438.76	0
2439.06	0
2439.36	0
2439.66	0
2439.95	0
2440.25	0
2440.55	0
2440.85	0
2441.15	0
2441.44	0
2441.74	0
2442.04	0
2442.34	0
2442.64	0
2442.93	0
2443.23	0
2443.53	0
2443.83	0
2444.13	0
2444.42	0
2444.72	0
2445.02	0
2445.32	0
2445.62	0
2445.91	0
2446.21	0
2446.51	0
2446.81	0
2447.1	0
2447.4	0
2447.7	0
2448	0
2448.3	0
2448.59	0
2448.89	0
2449.19	0
2449.49	0
2449.78	0
2450.08	0
2450.38	0
2450.68	0
2450.97	0
2451.27	0
2451.57	0
2451.87	0
2452.16	0
2452.46	0
2452.76	0
2453.05	0
2453.35	0
2453.65	0
2453.95	0
2454.24	0
2454.54	0
2454.84	0
2455.13	0
2455.43	0
2455.73	0
2456.03	0
2456.32	0
2456.62	0
2456.92	0
2457.21	0
2457.51	0
2457.81	0
2458.1	0
2458.4	0
2458.7	0
2458.99	0
2459.29	0
2459.59	0
2459.88	0
2460.18	0
2460.48	0
2460.77	0
2461.07	0
2461.37	0
2461.66	0
2461.96	0
2462.26	0
2462.55	0
2462.85	0
2463.15	0
2463.44	0
2463.74	0
2464.04	0
2464.33	0
2464.63	0
2464.92	0
2465.22	0
2465.52	0
2465.81	0
2466.11	0
2466.41	0
2466.7	0
2467	0
2467.29	0
2467.59	0
2467.89	0
2468.18	0
2468.48	0
2468.77	0
2469.07	0
2469.37	0
2469.66	0
2469.96	0
2470.25	0
2470.55	0
2470.84	0
2471.14	0
2471.44	0
2471.73	0
2472.03	0
2472.32	0
2472.62	0
2472.91	0
2473.21	0
2473.51	0
2473.8	0
2474.1	0
2474.39	0
2474.69	0
2474.98	0
2475.28	0
2475.57	0
2475.87	0
2476.17	0
2476.46	0
2476.76	0
2477.05	0
2477.35	0
2477.64	0
2477.94	0
2478.23	0
2478.53	0
2478.82	0
2479.12	0
2479.41	0
2479.71	0
2480	0
2480.3	0
2480.59	0
2480.89	0
2481.18	0
2481.48	0
2481.77	0
2482.07	0
2482.36	0
2482.66	0
2482.95	0
2483.25	0
2483.54	0
2483.84	0
2484.13	0
2484.43	0
2484.72	0
2485.02	0
2485.31	0
2485.6	0
2485.9	0
2486.19	0
2486.49	0
2486.78	0
2487.08	0
2487.37	0
2487.67	0
2487.96	0
2488.26	0
2488.55	0
2488.84	0
2489.14	0
2489.43	0
2489.73	0
2490.02	0
2490.32	0
2490.61	0
2490.9	0
2491.2	0
2491.49	0
2491.79	0
2492.08	0
2492.37	0
2492.67	0
2492.96	0
2493.26	0
2493.55	0
2493.84	0
2494.14	0
2494.43	0
2494.73	0
2495.02	0
2495.31	0
2495.61	0
2495.9	0
2496.2	0
2496.49	0
2496.78	0
2497.08	0
2497.37	0
2497.66	0
2497.96	0
2498.25	0
2498.54	0
2498.84	0
2499.13	0
2499.43	0
2499.72	0
2500.01	0
2500.31	0
2500.6	0
2500.89	0
2501.19	0
2501.48	0
2501.77	0
2502.07	0
2502.36	0
2502.65	0
2502.95	0
2503.24	0
2503.53	0
2503.82	0
2504.12	0
2504.41	0
2504.7	0
2505	0
2505.29	0
2505.58	0
2505.88	0
2506.17	0
2506.46	0
2506.76	0
2507.05	0
2507.34	0
2507.63	0
2507.93	0
2508.22	0
2508.51	0
2508.8	0
2509.1	0
2509.39	0
2509.68	0
2509.98	0
2510.27	0
2510.56	0
2510.85	0
2511.15	0
2511.44	0
2511.73	0
2512.02	0
2512.32	0
2512.61	0
2512.9	0
2513.19	0
2513.49	0
2513.78	0
2514.07	0
2514.36	0
2514.65	0
2514.95	0
2515.24	0
2515.53	0
2515.82	0
2516.12	0
2516.41	0
2516.7	0
2516.99	0
2517.28	0
2517.58	0
2517.87	0
2518.16	0
2518.45	0
2518.74	0
2519.04	0
2519.33	0
2519.62	0
2519.91	0
2520.2	0
2520.5	0
2520.79	0
2521.08	0
2521.37	0
2521.66	0
2521.95	0
2522.25	0
2522.54	0
2522.83	0
2523.12	0
2523.41	0
2523.7	0
2523.99	0
2524.29	0
2524.58	0
2524.87	0
2525.16	0
2525.45	0
2525.74	0
2526.03	0
2526.33	0
2526.62	0
2526.91	0
2527.2	0
2527.49	0
2527.78	0
2528.07	0
2528.36	0
2528.66	0
2528.95	0
2529.24	0
2529.53	0
2529.82	0
2530.11	0
2530.4	0
2530.69	0
2530.98	0
2531.27	0
2531.57	0
2531.86	0
2532.15	0
2532.44	0
2532.73	0
2533.02	0
2533.31	0
2533.6	0
2533.89	0
2534.18	0
2534.47	0
2534.76	0
2535.05	0
2535.35	0
2535.64	0
2535.93	0
2536.22	0
2536.51	0
2536.8	0
2537.09	0
2537.38	0
2537.67	0
2537.96	0
2538.25	0
2538.54	0
2538.83	0
2539.12	0
2539.41	0
2539.7	0
2539.99	0
2540.28	0
2540.57	0
2540.86	0
2541.15	0
2541.44	0
2541.73	0
2542.02	0
2542.31	0
2542.6	0
2542.89	0
2543.18	0
2543.47	0
2543.76	0
2544.05	0
2544.34	0
2544.63	0
2544.92	0
2545.21	0
2545.5	0
2545.79	0
2546.08	0
2546.37	0
2546.66	0
2546.95	0
2547.24	0
2547.53	0
2547.82	0
2548.11	0
2548.4	0
2548.69	0
2548.98	0
2549.27	0
2549.55	0
2549.84	0
2550.13	0
2550.42	0
2550.71	0
2551	0
2551.29	0
2551.58	0
2551.87	0
2552.16	0
2552.45	0
2552.74	0
2553.03	0
2553.31	0
2553.6	0
2553.89	0
2554.18	0
2554.47	0
2554.76	0
2555.05	0
2555.34	0
2555.63	0
2555.92	0
2556.2	0
2556.49	0
2556.78	0
2557.07	0
2557.36	0
2557.65	0
2557.94	0
2558.23	0
2558.51	0
2558.8	0
2559.09	0
2559.38	0
2559.67	0
2559.96	0
2560.25	0
2560.53	0
2560.82	0
2561.11	0
2561.4	0
2561.69	0
2561.98	0
2562.27	0
2562.55	0
2562.84	0
2563.13	0
2563.42	0
2563.71	0
2564	0
2564.28	0
2564.57	0
2564.86	0
2565.15	0
2565.44	0
2565.72	0
2566.01	0
2566.3	0
2566.59	0
2566.88	0
2567.16	0
2567.45	0
2567.74	0
2568.03	0
2568.32	0
2568.6	0
2568.89	0
2569.18	0
2569.47	0
2569.75	0

