Source: Spectrum Viewer

Chart: Pulse Spectrum

Series: 
Wavelength (nm)	S (a.u.)
1179.9	0
1180.29	0
1180.68	0
1181.06	0
1181.45	0
1181.83	0
1182.22	0
1182.6	0
1182.99	0
1183.38	0
1183.76	0
1184.15	0
1184.53	0
1184.92	0
1185.3	0
1185.69	0
1186.07	0
1186.46	0
1186.85	0
1187.23	0
1187.62	0
1188	0
1188.39	0
1188.77	0
1189.16	0
1189.54	0
1189.93	0
1190.31	0
1190.7	0
1191.08	0
1191.47	0
1191.85	0
1192.24	0
1192.62	0
1193.01	0
1193.39	0
1193.78	0
1194.16	0
1194.55	0
1194.93	0
1195.32	0
1195.7	0
1196.09	0
1196.47	0
1196.86	0
1197.24	0
1197.63	0
1198.01	0
1198.4	0
1198.78	0
1199.16	0
1199.55	0
1199.93	0
1200.32	0
1200.7	0
1201.09	0
1201.47	0
1201.86	0
1202.24	0
1202.63	0
1203.01	0
1203.39	0
1203.78	0
1204.16	0
1204.55	0
1204.93	0
1205.32	0
1205.7	0
1206.08	0
1206.47	0
1206.85	0
1207.24	0
1207.62	0
1208	0
1208.39	0
1208.77	0
1209.16	0
1209.54	0
1209.92	0
1210.31	0
1210.69	0
1211.08	0
1211.46	0
1211.84	0
1212.23	0
1212.61	0
1213	0
1213.38	0
1213.76	0
1214.15	0
1214.53	0
1214.91	0
1215.3	0
1215.68	0
1216.06	0
1216.45	0
1216.83	0
1217.22	0
1217.6	0
1217.98	0
1218.37	0
1218.75	0
1219.13	0
1219.52	0
1219.9	0
1220.28	0
1220.67	0
1221.05	0
1221.43	0
1221.82	0
1222.2	0
1222.58	0
1222.97	0
1223.35	0
1223.73	0
1224.11	0
1224.5	0
1224.88	0
1225.26	0
1225.65	0
1226.03	0
1226.41	0
1226.8	0
1227.18	0
1227.56	0
1227.94	0
1228.33	0
1228.71	0
1229.09	0
1229.47	0
1229.86	0
1230.24	0
1230.62	0
1231.01	0
1231.39	0
1231.77	0
1232.15	0
1232.54	0
1232.92	0
1233.3	0
1233.68	0
1234.07	0
1234.45	0
1234.83	0
1235.21	0
1235.6	0
1235.98	0
1236.36	0
1236.74	0
1237.12	0
1237.51	0
1237.89	0
1238.27	0
1238.65	0
1239.04	0
1239.42	0
1239.8	0
1240.18	0
1240.56	0
1240.95	0
1241.33	0
1241.71	0
1242.09	0
1242.47	0
1242.86	0
1243.24	0
1243.62	0
1244	0
1244.38	0
1244.77	0
1245.15	0
1245.53	0
1245.91	0
1246.29	0
1246.67	0
1247.06	0
1247.44	0
1247.82	0
1248.2	0
1248.58	0
1248.96	0
1249.34	0
1249.73	0
1250.11	0
1250.49	0
1250.87	0
1251.25	0
1251.63	0
1252.01	0
1252.4	0
1252.78	0
1253.16	0
1253.54	0
1253.92	0
1254.3	0
1254.68	0
1255.06	0
1255.45	0
1255.83	0
1256.21	0
1256.59	0
1256.97	0
1257.35	0
1257.73	0
1258.11	0
1258.49	0
1258.87	0
1259.26	0
1259.64	0
1260.02	0
1260.4	0
1260.78	0
1261.16	0
1261.54	0
1261.92	0
1262.3	0
1262.68	0
1263.06	0
1263.44	0
1263.82	0
1264.21	0
1264.59	0
1264.97	0
1265.35	0
1265.73	0
1266.11	0
1266.49	0
1266.87	0
1267.25	0
1267.63	0
1268.01	0
1268.39	0
1268.77	0
1269.15	0
1269.53	0
1269.91	0
1270.29	0
1270.67	0
1271.05	0
1271.43	0
1271.81	0
1272.19	0
1272.57	0
1272.95	0
1273.33	0
1273.71	0
1274.09	0
1274.47	0
1274.85	0
1275.23	0
1275.61	0
1275.99	0
1276.37	0
1276.75	0
1277.13	0
1277.51	0
1277.89	0
1278.27	0
1278.65	0
1279.03	0
1279.41	0
1279.79	0
1280.17	0
1280.55	0
1280.93	0
1281.31	0
1281.69	0
1282.07	0
1282.45	0
1282.82	0
1283.2	0
1283.58	0
1283.96	0
1284.34	0
1284.72	0
1285.1	0
1285.48	0
1285.86	0
1286.24	0
1286.62	0
1287	0
1287.38	0
1287.75	0
1288.13	0
1288.51	0
1288.89	0
1289.27	0
1289.65	0
1290.03	0
1290.41	0
1290.79	0
1291.17	0
1291.54	0
1291.92	0
1292.3	0
1292.68	0
1293.06	0
1293.44	0
1293.82	0
1294.2	0
1294.57	0
1294.95	0
1295.33	0
1295.71	0
1296.09	0
1296.47	0
1296.85	0
1297.22	0
1297.6	0
1297.98	0
1298.36	0
1298.74	0
1299.12	0
1299.5	0
1299.87	0
1300.25	0
1300.63	0
1301.01	0
1301.39	0
1301.77	0
1302.14	0
1302.52	0
1302.9	0
1303.28	0
1303.66	0
1304.03	0
1304.41	0
1304.79	0
1305.17	0
1305.55	0
1305.92	0
1306.3	0
1306.68	0
1307.06	0
1307.44	0
1307.81	0
1308.19	0
1308.57	0
1308.95	0
1309.32	0
1309.7	0
1310.08	0
1310.46	0
1310.84	0
1311.21	0
1311.59	0
1311.97	0
1312.35	0
1312.72	0
1313.1	0
1313.48	0
1313.86	0
1314.23	0
1314.61	0
1314.99	0
1315.37	0
1315.74	0
1316.12	0
1316.5	0
1316.87	0
1317.25	0
1317.63	0
1318.01	0
1318.38	0
1318.76	0
1319.14	0
1319.52	0
1319.89	0
1320.27	0
1320.65	0
1321.02	0
1321.4	0
1321.78	0
1322.15	0
1322.53	0
1322.91	0
1323.29	0
1323.66	0
1324.04	0
1324.42	0
1324.79	0
1325.17	0
1325.55	0
1325.92	0
1326.3	0
1326.68	0
1327.05	0
1327.43	0
1327.81	0
1328.18	0
1328.56	0
1328.94	0
1329.31	0
1329.69	0
1330.06	0
1330.44	0
1330.82	0
1331.19	0
1331.57	0
1331.95	0
1332.32	0
1332.7	0
1333.08	0
1333.45	0
1333.83	0
1334.2	0
1334.58	0
1334.96	0
1335.33	0
1335.71	0
1336.08	0
1336.46	0
1336.84	0
1337.21	0
1337.59	0
1337.96	0
1338.34	0
1338.72	0
1339.09	0
1339.47	0
1339.84	0
1340.22	0
1340.6	0
1340.97	0
1341.35	0
1341.72	0
1342.1	0
1342.47	0
1342.85	0
1343.23	0
1343.6	0
1343.98	0
1344.35	0
1344.73	0
1345.1	0
1345.48	0
1345.85	0
1346.23	0
1346.61	0
1346.98	0
1347.36	0
1347.73	0
1348.11	0
1348.48	0
1348.86	0
1349.23	0
1349.61	0
1349.98	0
1350.36	0
1350.73	0
1351.11	0
1351.48	0
1351.86	0
1352.23	0
1352.61	0
1352.98	0
1353.36	0
1353.73	0
1354.11	0
1354.48	0
1354.86	0
1355.23	0
1355.61	0
1355.98	0
1356.36	0
1356.73	0
1357.11	0
1357.48	0
1357.86	0
1358.23	0
1358.61	0
1358.98	0
1359.35	0
1359.73	0
1360.1	0
1360.48	0
1360.85	0
1361.23	0
1361.6	0
1361.98	0
1362.35	0
1362.72	0
1363.1	0
1363.47	0
1363.85	0
1364.22	0
1364.6	0
1364.97	0
1365.34	0
1365.72	0
1366.09	0
1366.47	0
1366.84	0
1367.22	0
1367.59	0
1367.96	0
1368.34	0
1368.71	0
1369.09	0
1369.46	0
1369.83	52
1370.21	46
1370.58	53
1370.96	52
1371.33	51
1371.7	52
1372.08	52
1372.45	52
1372.82	52
1373.2	52
1373.57	50
1373.95	52
1374.32	53
1374.69	52
1375.07	51
1375.44	52
1375.81	52
1376.19	52
1376.56	53
1376.93	53
1377.31	52
1377.68	53
1378.05	53
1378.43	53
1378.8	52
1379.17	52
1379.55	53
1379.92	52
1380.29	54
1380.67	53
1381.04	54
1381.41	52
1381.79	55
1382.16	52
1382.53	52
1382.91	53
1383.28	55
1383.65	47
1384.03	54
1384.4	53
1384.77	53
1385.14	52
1385.52	54
1385.89	53
1386.26	54
1386.64	54
1387.01	54
1387.38	53
1387.75	54
1388.13	53
1388.5	54
1388.87	54
1389.25	55
1389.62	55
1389.99	54
1390.36	54
1390.74	53
1391.11	55
1391.48	55
1391.85	57
1392.23	54
1392.6	55
1392.97	54
1393.34	54
1393.72	56
1394.09	54
1394.46	55
1394.83	55
1395.21	56
1395.58	56
1395.95	55
1396.32	55
1396.69	55
1397.07	56
1397.44	56
1397.81	55
1398.18	56
1398.55	56
1398.93	55
1399.3	54
1399.67	57
1400.04	55
1400.41	57
1400.79	56
1401.16	56
1401.53	56
1401.9	56
1402.27	56
1402.65	57
1403.02	56
1403.39	57
1403.76	55
1404.13	56
1404.51	54
1404.88	57
1405.25	54
1405.62	56
1405.99	56
1406.36	56
1406.74	57
1407.11	57
1407.48	58
1407.85	56
1408.22	55
1408.59	49
1408.96	56
1409.34	56
1409.71	55
1410.08	57
1410.45	58
1410.82	56
1411.19	57
1411.56	56
1411.93	57
1412.31	56
1412.68	57
1413.05	59
1413.42	57
1413.79	58
1414.16	58
1414.53	58
1414.9	56
1415.27	58
1415.65	57
1416.02	58
1416.39	58
1416.76	58
1417.13	59
1417.5	59
1417.87	58
1418.24	57
1418.61	59
1418.98	58
1419.35	59
1419.73	58
1420.1	58
1420.47	58
1420.84	58
1421.21	60
1421.58	59
1421.95	59
1422.32	58
1422.69	58
1423.06	58
1423.43	59
1423.8	58
1424.17	59
1424.54	58
1424.91	58
1425.28	60
1425.65	59
1426.02	59
1426.39	60
1426.76	60
1427.14	60
1427.51	57
1427.88	58
1428.25	60
1428.62	60
1428.99	59
1429.36	58
1429.73	59
1430.1	62
1430.47	60
1430.84	61
1431.21	60
1431.58	61
1431.95	62
1432.32	60
1432.69	59
1433.06	60
1433.43	60
1433.8	60
1434.17	60
1434.54	60
1434.91	62
1435.28	62
1435.64	61
1436.01	61
1436.38	61
1436.75	58
1437.12	60
1437.49	62
1437.86	62
1438.23	61
1438.6	62
1438.97	62
1439.34	61
1439.71	64
1440.08	62
1440.45	62
1440.82	62
1441.19	62
1441.56	59
1441.93	63
1442.3	63
1442.67	64
1443.03	61
1443.4	55
1443.77	63
1444.14	62
1444.51	62
1444.88	62
1445.25	62
1445.62	63
1445.99	63
1446.36	62
1446.73	64
1447.09	63
1447.46	62
1447.83	63
1448.2	63
1448.57	62
1448.94	63
1449.31	61
1449.68	64
1450.05	64
1450.41	64
1450.78	64
1451.15	65
1451.52	61
1451.89	64
1452.26	64
1452.63	65
1453	65
1453.36	65
1453.73	64
1454.1	64
1454.47	65
1454.84	63
1455.21	65
1455.57	64
1455.94	65
1456.31	64
1456.68	65
1457.05	65
1457.42	64
1457.78	66
1458.15	65
1458.52	65
1458.89	66
1459.26	66
1459.63	66
1459.99	67
1460.36	66
1460.73	66
1461.1	67
1461.47	67
1461.83	66
1462.2	67
1462.57	67
1462.94	67
1463.31	66
1463.67	67
1464.04	67
1464.41	68
1464.78	68
1465.15	68
1465.51	66
1465.88	69
1466.25	68
1466.62	69
1466.98	67
1467.35	69
1467.72	66
1468.09	67
1468.46	67
1468.82	69
1469.19	70
1469.56	70
1469.93	69
1470.29	70
1470.66	71
1471.03	71
1471.4	70
1471.76	69
1472.13	71
1472.5	73
1472.86	72
1473.23	71
1473.6	69
1473.97	71
1474.33	71
1474.7	71
1475.07	73
1475.44	72
1475.8	72
1476.17	72
1476.54	69
1476.9	73
1477.27	69
1477.64	70
1478	69
1478.37	72
1478.74	73
1479.11	75
1479.47	74
1479.84	72
1480.21	72
1480.57	72
1480.94	73
1481.31	75
1481.67	75
1482.04	76
1482.41	77
1482.77	74
1483.14	75
1483.51	76
1483.87	77
1484.24	77
1484.61	75
1484.97	77
1485.34	77
1485.71	78
1486.07	75
1486.44	69
1486.81	77
1487.17	78
1487.54	79
1487.9	78
1488.27	78
1488.64	78
1489	79
1489.37	77
1489.74	80
1490.1	79
1490.47	78
1490.83	80
1491.2	81
1491.57	82
1491.93	82
1492.3	81
1492.66	83
1493.03	81
1493.4	82
1493.76	82
1494.13	84
1494.49	84
1494.86	84
1495.23	83
1495.59	86
1495.96	85
1496.32	84
1496.69	80
1497.06	86
1497.42	86
1497.79	86
1498.15	82
1498.52	85
1498.88	87
1499.25	85
1499.62	88
1499.98	89
1500.35	87
1500.71	87
1501.08	88
1501.44	89
1501.81	89
1502.17	90
1502.54	91
1502.9	91
1503.27	88
1503.64	91
1504	92
1504.37	93
1504.73	92
1505.1	91
1505.46	91
1505.83	93
1506.19	96
1506.56	95
1506.92	91
1507.29	93
1507.65	95
1508.02	98
1508.38	96
1508.75	98
1509.11	96
1509.48	97
1509.84	98
1510.21	98
1510.57	99
1510.94	98
1511.3	96
1511.67	96
1512.03	99
1512.4	101
1512.76	102
1513.13	98
1513.49	102
1513.85	97
1514.22	103
1514.58	102
1514.95	104
1515.31	105
1515.68	105
1516.04	106
1516.41	108
1516.77	107
1517.14	108
1517.5	108
1517.86	105
1518.23	108
1518.59	109
1518.96	109
1519.32	109
1519.69	109
1520.05	110
1520.41	110
1520.78	112
1521.14	110
1521.51	112
1521.87	114
1522.24	113
1522.6	113
1522.96	113
1523.33	114
1523.69	115
1524.06	115
1524.42	115
1524.78	115
1525.15	116
1525.51	114
1525.88	114
1526.24	113
1526.6	117
1526.97	116
1527.33	117
1527.69	114
1528.06	116
1528.42	115
1528.79	117
1529.15	118
1529.51	119
1529.88	116
1530.24	121
1530.6	121
1530.97	121
1531.33	121
1531.69	121
1532.06	122
1532.42	122
1532.78	122
1533.15	121
1533.51	122
1533.87	122
1534.24	120
1534.6	123
1534.96	124
1535.33	123
1535.69	122
1536.05	122
1536.42	124
1536.78	124
1537.14	123
1537.51	122
1537.87	123
1538.23	124
1538.6	124
1538.96	126
1539.32	125
1539.68	125
1540.05	125
1540.41	124
1540.77	125
1541.14	126
1541.5	125
1541.86	125
1542.23	126
1542.59	125
1542.95	126
1543.31	126
1543.68	129
1544.04	128
1544.4	127
1544.76	129
1545.13	130
1545.49	129
1545.85	129
1546.21	132
1546.58	132
1546.94	132
1547.3	132
1547.66	133
1548.03	133
1548.39	134
1548.75	134
1549.11	135
1549.48	136
1549.84	136
1550.2	137
1550.56	136
1550.93	138
1551.29	138
1551.65	141
1552.01	139
1552.37	142
1552.74	142
1553.1	141
1553.46	141
1553.82	142
1554.18	142
1554.55	142
1554.91	144
1555.27	142
1555.63	145
1555.99	146
1556.36	145
1556.72	146
1557.08	146
1557.44	139
1557.8	148
1558.17	148
1558.53	148
1558.89	148
1559.25	149
1559.61	151
1559.97	150
1560.34	152
1560.7	150
1561.06	151
1561.42	152
1561.78	151
1562.14	151
1562.5	152
1562.87	150
1563.23	153
1563.59	151
1563.95	151
1564.31	150
1564.67	154
1565.03	152
1565.4	152
1565.76	152
1566.12	151
1566.48	154
1566.84	153
1567.2	152
1567.56	150
1567.92	150
1568.29	150
1568.65	151
1569.01	150
1569.37	149
1569.73	149
1570.09	144
1570.45	144
1570.81	149
1571.17	150
1571.53	147
1571.89	146
1572.26	146
1572.62	143
1572.98	143
1573.34	147
1573.7	144
1574.06	146
1574.42	146
1574.78	146
1575.14	144
1575.5	146
1575.86	146
1576.22	143
1576.58	141
1576.94	146
1577.3	144
1577.67	144
1578.03	140
1578.39	140
1578.75	141
1579.11	142
1579.47	143
1579.83	140
1580.19	138
1580.55	138
1580.91	141
1581.27	146
1581.63	143
1581.99	141
1582.35	137
1582.71	142
1583.07	145
1583.43	142
1583.79	140
1584.15	141
1584.51	142
1584.87	144
1585.23	142
1585.59	143
1585.95	142
1586.31	142
1586.67	143
1587.03	141
1587.39	146
1587.75	141
1588.11	141
1588.47	143
1588.83	141
1589.19	143
1589.55	147
1589.91	145
1590.27	146
1590.63	138
1590.99	146
1591.35	146
1591.71	146
1592.07	144
1592.42	143
1592.78	140
1593.14	145
1593.5	145
1593.86	144
1594.22	141
1594.58	142
1594.94	144
1595.3	148
1595.66	145
1596.02	147
1596.38	145
1596.74	144
1597.1	144
1597.46	149
1597.81	147
1598.17	145
1598.53	147
1598.89	144
1599.25	148
1599.61	152
1599.97	150
1600.33	142
1600.69	148
1601.05	142
1601.4	148
1601.76	144
1602.12	145
1602.48	138
1602.84	140
1603.2	145
1603.56	146
1603.92	148
1604.28	144
1604.63	147
1604.99	145
1605.35	144
1605.71	152
1606.07	151
1606.43	146
1606.79	143
1607.14	144
1607.5	150
1607.86	151
1608.22	150
1608.58	142
1608.94	140
1609.29	145
1609.65	149
1610.01	149
1610.37	142
1610.73	148
1611.09	140
1611.44	152
1611.8	146
1612.16	145
1612.52	142
1612.88	140
1613.24	141
1613.59	150
1613.95	147
1614.31	147
1614.67	144
1615.03	136
1615.38	143
1615.74	144
1616.1	139
1616.46	144
1616.82	138
1617.17	138
1617.53	144
1617.89	144
1618.25	147
1618.6	138
1618.96	136
1619.32	147
1619.68	145
1620.04	138
1620.39	141
1620.75	137
1621.11	133
1621.47	138
1621.82	130
1622.18	153
1622.54	141
1622.9	134
1623.25	131
1623.61	138
1623.97	129
1624.33	136
1624.68	129
1625.04	131
1625.4	130
1625.75	138
1626.11	135
1626.47	128
1626.83	126
1627.18	127
1627.54	124
1627.9	128
1628.26	132
1628.61	126
1628.97	115
1629.33	123
1629.68	124
1630.04	130
1630.4	118
1630.75	111
1631.11	109
1631.47	117
1631.83	113
1632.18	106
1632.54	105
1632.9	108
1633.25	104
1633.61	104
1633.97	102
1634.32	103
1634.68	101
1635.04	97
1635.39	96
1635.75	97
1636.11	94
1636.46	94
1636.82	93
1637.18	90
1637.53	87
1637.89	88
1638.25	88
1638.6	87
1638.96	80
1639.31	80
1639.67	79
1640.03	81
1640.38	82
1640.74	77
1641.1	75
1641.45	75
1641.81	77
1642.16	75
1642.52	73
1642.88	73
1643.23	72
1643.59	73
1643.95	69
1644.3	70
1644.66	67
1645.01	72
1645.37	69
1645.73	69
1646.08	70
1646.44	69
1646.79	68
1647.15	67
1647.51	64
1647.86	69
1648.22	69
1648.57	69
1648.93	68
1649.28	67
1649.64	67
1650	74
1650.35	70
1650.71	70
1651.06	73
1651.42	70
1651.77	73
1652.13	73
1652.48	76
1652.84	76
1653.2	75
1653.55	78
1653.91	80
1654.26	83
1654.62	85
1654.97	84
1655.33	84
1655.68	83
1656.04	90
1656.39	90
1656.75	91
1657.1	89
1657.46	95
1657.81	96
1658.17	104
1658.52	102
1658.88	102
1659.23	106
1659.59	109
1659.94	113
1660.3	116
1660.65	118
1661.01	114
1661.36	118
1661.72	119
1662.07	122
1662.43	121
1662.78	124
1663.14	127
1663.49	126
1663.85	132
1664.2	136
1664.56	139
1664.91	136
1665.27	138
1665.62	132
1665.98	142
1666.33	148
1666.69	146
1667.04	151
1667.39	153
1667.75	154
1668.1	164
1668.46	163
1668.81	171
1669.17	167
1669.52	165
1669.88	167
1670.23	171
1670.58	180
1670.94	173
1671.29	178
1671.65	175
1672	186
1672.36	190
1672.71	186
1673.06	188
1673.42	184
1673.77	193
1674.13	192
1674.48	191
1674.83	193
1675.19	191
1675.54	191
1675.9	193
1676.25	193
1676.6	197
1676.96	192
1677.31	194
1677.67	197
1678.02	195
1678.37	196
1678.73	198
1679.08	194
1679.43	201
1679.79	198
1680.14	198
1680.5	201
1680.85	196
1681.2	198
1681.56	201
1681.91	199
1682.26	202
1682.62	198
1682.97	204
1683.32	200
1683.68	200
1684.03	200
1684.38	198
1684.74	199
1685.09	200
1685.44	204
1685.8	199
1686.15	194
1686.5	200
1686.86	198
1687.21	198
1687.56	202
1687.92	197
1688.27	201
1688.62	195
1688.98	194
1689.33	199
1689.68	192
1690.03	196
1690.39	194
1690.74	193
1691.09	197
1691.45	197
1691.8	198
1692.15	187
1692.5	191
1692.86	193
1693.21	192
1693.56	198
1693.92	190
1694.27	192
1694.62	195
1694.97	192
1695.33	194
1695.68	196
1696.03	192
1696.38	194
1696.74	190
1697.09	190
1697.44	192
1697.79	189
1698.15	195
1698.5	192
1698.85	196
1699.2	192
1699.56	195
1699.91	197
1700.26	195
1700.61	200
1700.97	199
1701.32	199
1701.67	204
1702.02	200
1702.37	205
1702.73	204
1703.08	205
1703.43	209
1703.78	206
1704.13	210
1704.49	214
1704.84	210
1705.19	217
1705.54	216
1705.89	220
1706.25	226
1706.6	224
1706.95	231
1707.3	226
1707.65	230
1708.01	234
1708.36	234
1708.71	243
1709.06	240
1709.41	248
1709.76	251
1710.12	245
1710.47	258
1710.82	258
1711.17	256
1711.52	264
1711.87	261
1712.23	271
1712.58	275
1712.93	271
1713.28	280
1713.63	277
1713.98	294
1714.33	297
1714.69	297
1715.04	304
1715.39	296
1715.74	300
1716.09	312
1716.44	308
1716.79	320
1717.14	319
1717.5	323
1717.85	329
1718.2	324
1718.55	343
1718.9	335
1719.25	336
1719.6	352
1719.95	345
1720.3	360
1720.65	359
1721.01	353
1721.36	373
1721.71	363
1722.06	375
1722.41	381
1722.76	372
1723.11	387
1723.46	385
1723.81	390
1724.16	397
1724.51	390
1724.86	409
1725.21	404
1725.56	404
1725.92	419
1726.27	409
1726.62	413
1726.97	423
1727.32	412
1727.67	429
1728.02	422
1728.37	421
1728.72	442
1729.07	436
1729.42	444
1729.77	454
1730.12	446
1730.47	459
1730.82	445
1731.17	448
1731.52	465
1731.87	445
1732.22	465
1732.57	459
1732.92	476
1733.27	476
1733.62	460
1733.97	485
1734.32	464
1734.67	467
1735.02	491
1735.37	470
1735.72	484
1736.07	473
1736.42	494
1736.77	487
1737.12	491
1737.47	499
1737.82	477
1738.17	483
1738.52	480
1738.87	495
1739.22	504
1739.57	496
1739.92	499
1740.27	479
1740.62	466
1740.97	508
1741.32	481
1741.67	462
1742.02	460
1742.37	446
1742.72	458
1743.06	454
1743.41	467
1743.76	479
1744.11	453
1744.46	441
1744.81	458
1745.16	463
1745.51	433
1745.86	419
1746.21	430
1746.56	428
1746.91	423
1747.26	427
1747.6	452
1747.95	443
1748.3	410
1748.65	430
1749	431
1749.35	419
1749.7	386
1750.05	380
1750.4	403
1750.75	403
1751.09	406
1751.44	425
1751.79	415
1752.14	388
1752.49	397
1752.84	400
1753.19	374
1753.54	376
1753.88	367
1754.23	376
1754.58	410
1754.93	366
1755.28	392
1755.63	418
1755.98	369
1756.32	381
1756.67	377
1757.02	353
1757.37	350
1757.72	314
1758.07	337
1758.42	381
1758.76	350
1759.11	368
1759.46	417
1759.81	380
1760.16	393
1760.5	355
1760.85	341
1761.2	361
1761.55	312
1761.9	333
1762.25	416
1762.59	370
1762.94	389
1763.29	443
1763.64	438
1763.99	453
1764.33	373
1764.68	367
1765.03	435
1765.38	358
1765.73	381
1766.07	494
1766.42	445
1766.77	482
1767.12	526
1767.46	529
1767.81	568
1768.16	484
1768.51	492
1768.85	534
1769.2	489
1769.55	559
1769.9	610
1770.25	620
1770.59	692
1770.94	716
1771.29	662
1771.64	658
1771.98	699
1772.33	693
1772.68	645
1773.02	759
1773.37	783
1773.72	793
1774.07	982
1774.41	906
1774.76	967
1775.11	1053
1775.46	902
1775.8	907
1776.15	833
1776.5	845
1776.84	1157
1777.19	1061
1777.54	1034
1777.89	1243
1778.23	1265
1778.58	1324
1778.93	1241
1779.27	1267
1779.62	1342
1779.97	1289
1780.31	1276
1780.66	1110
1781.01	1294
1781.35	1245
1781.7	1439
1782.05	1710
1782.39	1544
1782.74	1563
1783.09	1441
1783.43	1658
1783.78	1861
1784.13	1701
1784.47	1625
1784.82	1714
1785.17	1499
1785.51	1527
1785.86	1616
1786.21	2171
1786.55	2262
1786.9	2128
1787.25	2233
1787.59	2532
1787.94	2068
1788.29	2043
1788.63	1771
1788.98	1902
1789.32	2408
1789.67	2112
1790.02	1916
1790.36	1628
1790.71	2174
1791.06	3655
1791.4	3178
1791.75	2854
1792.09	3209
1792.44	3296
1792.79	3795
1793.13	3378
1793.48	3688
1793.82	3342
1794.17	3188
1794.52	3390
1794.86	2900
1795.21	3036
1795.55	2747
1795.9	2435
1796.24	2149
1796.59	1766
1796.94	3970
1797.28	5949
1797.63	5247
1797.97	4161
1798.32	3695
1798.66	3469
1799.01	3513
1799.36	3474
1799.7	4522
1800.05	3826
1800.39	3225
1800.74	4197
1801.08	3739
1801.43	3170
1801.77	7119
1802.12	6385
1802.46	4837
1802.81	3580
1803.15	4288
1803.5	4597
1803.85	4370
1804.19	3744
1804.54	3289
1804.88	2498
1805.23	3488
1805.57	5592
1805.92	3644
1806.26	3487
1806.61	7649
1806.95	6712
1807.3	4263
1807.64	3786
1807.99	6067
1808.33	8584
1808.68	6357
1809.02	5077
1809.37	3888
1809.71	3907
1810.06	9282
1810.4	8406
1810.75	6706
1811.09	4667
1811.43	3908
1811.78	4873
1812.12	10249
1812.47	9991
1812.81	8776
1813.16	7494
1813.5	7591
1813.85	6476
1814.19	6667
1814.54	6651
1814.88	5618
1815.23	5572
1815.57	4870
1815.91	4341
1816.26	3348
1816.6	2639
1816.95	2995
1817.29	8995
1817.64	10135
1817.98	5807
1818.32	7361
1818.67	8433
1819.01	9777
1819.36	8936
1819.7	7908
1820.05	6840
1820.39	6006
1820.73	6654
1821.08	6650
1821.42	6509
1821.77	6548
1822.11	5377
1822.45	5048
1822.8	3845
1823.14	5295
1823.49	6128
1823.83	3463
1824.17	8787
1824.52	11820
1824.86	8671
1825.2	7257
1825.55	6693
1825.89	6153
1826.24	4553
1826.58	4016
1826.92	7359
1827.27	9722
1827.61	7593
1827.95	6778
1828.3	6275
1828.64	5595
1828.98	5351
1829.33	3914
1829.67	3359
1830.02	5499
1830.36	10456
1830.7	8002
1831.05	7043
1831.39	8513
1831.73	7490
1832.08	7276
1832.42	5790
1832.76	5848
1833.1	5543
1833.45	4908
1833.79	5484
1834.13	4575
1834.48	4055
1834.82	5321
1835.16	5753
1835.51	4966
1835.85	4635
1836.19	4774
1836.54	3757
1836.88	3740
1837.22	3138
1837.56	2642
1837.91	2435
1838.25	3822
1838.59	5013
1838.94	6381
1839.28	6596
1839.62	4163
1839.96	3340
1840.31	4502
1840.65	4276
1840.99	2790
1841.34	2544
1841.68	6008
1842.02	8526
1842.36	6996
1842.71	5278
1843.05	4181
1843.39	2630
1843.73	4126
1844.08	8158
1844.42	7581
1844.76	6636
1845.1	6638
1845.45	5730
1845.79	3968
1846.13	4035
1846.47	5940
1846.81	4787
1847.16	3692
1847.5	2834
1847.84	4395
1848.18	6638
1848.53	6361
1848.87	4653
1849.21	4147
1849.55	4264
1849.89	3795
1850.24	3433
1850.58	3402
1850.92	3502
1851.26	2955
1851.6	3148
1851.95	3397
1852.29	3093
1852.63	3266
1852.97	2777
1853.31	2582
1853.66	2441
1854	2410
1854.34	1988
1854.68	2009
1855.02	4145
1855.36	3923
1855.71	3147
1856.05	2538
1856.39	2367
1856.73	2446
1857.07	2407
1857.41	1991
1857.76	2280
1858.1	2511
1858.44	2070
1858.78	2084
1859.12	1826
1859.46	1895
1859.8	1951
1860.15	1866
1860.49	1688
1860.83	1894
1861.17	3656
1861.51	3195
1861.85	2243
1862.19	1876
1862.53	1806
1862.88	1927
1863.22	2443
1863.56	2107
1863.9	1929
1864.24	1974
1864.58	1957
1864.92	2402
1865.26	2020
1865.6	1866
1865.94	1886
1866.29	1673
1866.63	1704
1866.97	1845
1867.31	1784
1867.65	1762
1867.99	1938
1868.33	2103
1868.67	2302
1869.01	1998
1869.35	2065
1869.69	2274
1870.03	3001
1870.37	3894
1870.72	2509
1871.06	2836
1871.4	2443
1871.74	2068
1872.08	2068
1872.42	2037
1872.76	2406
1873.1	2774
1873.44	3815
1873.78	2593
1874.12	2145
1874.46	2112
1874.8	2400
1875.14	2626
1875.48	3496
1875.82	3692
1876.16	2506
1876.5	2359
1876.84	3091
1877.18	3041
1877.52	2365
1877.86	2322
1878.2	2371
1878.54	2334
1878.88	2581
1879.22	2596
1879.56	2451
1879.9	2799
1880.24	2695
1880.58	2886
1880.92	2941
1881.26	2982
1881.6	3137
1881.94	3010
1882.28	2909
1882.62	2840
1882.96	3238
1883.3	3553
1883.64	3809
1883.98	3369
1884.32	2876
1884.66	2791
1885	2946
1885.34	3144
1885.68	3141
1886.02	3269
1886.36	3460
1886.7	3301
1887.04	3097
1887.38	3311
1887.72	3351
1888.06	3390
1888.39	3528
1888.73	3763
1889.07	3619
1889.41	3990
1889.75	4581
1890.09	3892
1890.43	3882
1890.77	4250
1891.11	3331
1891.45	3084
1891.79	3424
1892.13	3378
1892.47	3493
1892.8	3731
1893.14	3789
1893.48	3750
1893.82	4032
1894.16	4157
1894.5	3767
1894.84	3614
1895.18	3813
1895.52	3851
1895.86	3824
1896.19	4099
1896.53	3986
1896.87	4055
1897.21	4145
1897.55	4161
1897.89	3865
1898.23	4202
1898.57	4291
1898.9	4358
1899.24	3800
1899.58	4072
1899.92	4096
1900.26	4083
1900.6	4255
1900.94	4100
1901.27	4185
1901.61	4151
1901.95	4291
1902.29	4098
1902.63	4328
1902.97	4282
1903.3	4248
1903.64	4278
1903.98	4448
1904.32	4207
1904.66	4050
1905	4321
1905.33	4277
1905.67	4244
1906.01	4332
1906.35	4380
1906.69	4349
1907.02	4180
1907.36	4126
1907.7	4178
1908.04	4179
1908.38	4328
1908.71	4237
1909.05	4178
1909.39	4223
1909.73	4262
1910.07	4111
1910.4	4011
1910.74	4127
1911.08	4141
1911.42	4127
1911.76	4100
1912.09	4227
1912.43	4052
1912.77	4042
1913.11	4185
1913.44	4135
1913.78	4040
1914.12	4134
1914.46	4135
1914.79	3975
1915.13	4042
1915.47	4099
1915.81	3892
1916.14	3833
1916.48	4058
1916.82	3951
1917.16	3908
1917.49	3936
1917.83	4024
1918.17	3806
1918.5	3872
1918.84	3908
1919.18	3817
1919.52	3753
1919.85	3883
1920.19	3787
1920.53	3724
1920.87	3788
1921.2	3846
1921.54	3646
1921.88	3698
1922.21	3740
1922.55	3657
1922.89	3656
1923.22	3785
1923.56	3643
1923.9	3537
1924.23	3592
1924.57	3635
1924.91	3535
1925.25	3569
1925.58	3609
1925.92	3483
1926.26	3506
1926.59	3594
1926.93	3551
1927.27	3387
1927.6	3538
1927.94	3459
1928.28	3415
1928.61	3445
1928.95	3534
1929.29	3338
1929.62	3355
1929.96	3461
1930.29	3469
1930.63	3371
1930.97	3571
1931.3	3420
1931.64	3339
1931.98	3432
1932.31	3491
1932.65	3347
1932.99	3372
1933.32	3436
1933.66	3300
1933.99	3308
1934.33	3501
1934.67	3395
1935	3258
1935.34	3411
1935.67	3286
1936.01	3307
1936.35	3499
1936.68	3463
1937.02	3305
1937.35	3406
1937.69	3459
1938.03	3312
1938.36	3584
1938.7	3470
1939.03	3332
1939.37	3433
1939.7	3529
1940.04	3357
1940.38	3594
1940.71	3590
1941.05	3393
1941.38	3523
1941.72	3615
1942.05	3515
1942.39	3529
1942.73	3699
1943.06	3483
1943.4	3493
1943.73	3674
1944.07	3672
1944.4	3559
1944.74	3692
1945.07	3659
1945.41	3560
1945.74	3726
1946.08	3795
1946.42	3674
1946.75	3694
1947.09	3887
1947.42	3734
1947.76	3785
1948.09	3886
1948.43	3912
1948.76	3736
1949.1	3996
1949.43	3944
1949.77	3887
1950.1	3896
1950.44	4088
1950.77	3865
1951.11	3947
1951.44	4083
1951.78	4128
1952.11	3899
1952.45	4085
1952.78	4115
1953.12	4093
1953.45	3986
1953.79	4280
1954.12	4099
1954.46	4062
1954.79	4173
1955.12	4290
1955.46	4043
1955.79	4232
1956.13	4254
1956.46	4188
1956.8	4137
1957.13	4352
1957.47	4211
1957.8	4173
1958.14	4300
1958.47	4389
1958.8	4151
1959.14	4247
1959.47	4343
1959.81	4320
1960.14	4143
1960.48	4377
1960.81	4315
1961.14	4264
1961.48	4206
1961.81	4453
1962.15	4287
1962.48	4249
1962.82	4271
1963.15	4444
1963.48	4227
1963.82	4288
1964.15	4371
1964.49	4358
1964.82	4159
1965.15	4312
1965.49	4386
1965.82	4248
1966.16	4205
1966.49	4360
1966.82	4254
1967.16	4144
1967.49	4269
1967.83	4383
1968.16	4202
1968.49	4141
1968.83	4279
1969.16	4241
1969.49	4131
1969.83	4162
1970.16	4295
1970.49	4072
1970.83	4050
1971.16	4107
1971.5	4223
1971.83	3971
1972.16	3992
1972.5	4055
1972.83	4060
1973.16	3883
1973.5	4026
1973.83	4111
1974.16	3926
1974.5	3803
1974.83	3906
1975.16	4033
1975.5	3785
1975.83	3767
1976.16	3808
1976.49	3835
1976.83	3616
1977.16	3769
1977.49	3783
1977.83	3640
1978.16	3537
1978.49	3659
1978.83	3654
1979.16	3491
1979.49	3498
1979.83	3527
1980.16	3480
1980.49	3304
1980.82	3427
1981.16	3400
1981.49	3300
1981.82	3128
1982.15	3300
1982.49	3166
1982.82	3115
1983.15	3111
1983.49	3172
1983.82	2996
1984.15	2966
1984.48	2976
1984.82	2997
1985.15	2819
1985.48	2852
1985.81	2779
1986.15	2757
1986.48	2692
1986.81	2764
1987.14	2719
1987.48	2584
1987.81	2544
1988.14	2629
1988.47	2544
1988.81	2406
1989.14	2512
1989.47	2432
1989.8	2344
1990.13	2277
1990.47	2391
1990.8	2231
1991.13	2207
1991.46	2158
1991.79	2199
1992.13	2082
1992.46	2111
1992.79	2073
1993.12	2063
1993.45	1940
1993.79	1988
1994.12	1988
1994.45	1887
1994.78	1838
1995.11	1890
1995.45	1851
1995.78	1777
1996.11	1822
1996.44	1801
1996.77	1720
1997.1	1673
1997.44	1713
1997.77	1663
1998.1	1616
1998.43	1609
1998.76	1650
1999.09	1527
1999.43	1546
1999.76	1548
2000.09	1562
2000.42	1450
2000.75	1503
2001.08	1487
2001.41	1456
2001.75	1416
2002.08	1495
2002.41	1422
2002.74	1398
2003.07	1403
2003.4	1441
2003.73	1361
2004.06	1389
2004.4	1388
2004.73	1363
2005.06	1338
2005.39	1397
2005.72	1352
2006.05	1338
2006.38	1358
2006.71	1378
2007.04	1327
2007.37	1347
2007.71	1377
2008.04	1343
2008.37	1333
2008.7	1379
2009.03	1363
2009.36	1346
2009.69	1359
2010.02	1397
2010.35	1349
2010.68	1366
2011.01	1397
2011.34	1393
2011.67	1361
2012.01	1406
2012.34	1409
2012.67	1394
2013	1399
2013.33	1445
2013.66	1408
2013.99	1412
2014.32	1436
2014.65	1469
2014.98	1420
2015.31	1458
2015.64	1463
2015.97	1479
2016.3	1436
2016.63	1492
2016.96	1491
2017.29	1482
2017.62	1470
2017.95	1511
2018.28	1512
2018.61	1501
2018.94	1514
2019.27	1531
2019.6	1528
2019.93	1497
2020.26	1552
2020.59	1554
2020.92	1540
2021.25	1527
2021.58	1578
2021.91	1560
2022.24	1554
2022.57	1564
2022.9	1586
2023.23	1554
2023.56	1565
2023.89	1577
2024.22	1588
2024.55	1556
2024.88	1573
2025.21	1591
2025.54	1579
2025.87	1576
2026.2	1573
2026.53	1604
2026.86	1553
2027.19	1565
2027.52	1577
2027.85	1592
2028.18	1567
2028.51	1562
2028.84	1579
2029.16	1564
2029.49	1557
2029.82	1544
2030.15	1572
2030.48	1543
2030.81	1522
2031.14	1514
2031.47	1540
2031.8	1513
2032.13	1501
2032.46	1502
2032.79	1495
2033.12	1488
2033.44	1476
2033.77	1490
2034.1	1464
2034.43	1454
2034.76	1439
2035.09	1460
2035.42	1458
2035.75	1412
2036.08	1426
2036.41	1403
2036.73	1411
2037.06	1384
2037.39	1394
2037.72	1387
2038.05	1370
2038.38	1348
2038.71	1338
2039.04	1353
2039.36	1332
2039.69	1302
2040.02	1298
2040.35	1301
2040.68	1284
2041.01	1265
2041.34	1273
2041.66	1256
2041.99	1241
2042.32	1224
2042.65	1229
2042.98	1229
2043.31	1209
2043.63	1194
2043.96	1191
2044.29	1187
2044.62	1178
2044.95	1158
2045.28	1157
2045.6	1152
2045.93	1137
2046.26	1121
2046.59	1130
2046.92	1121
2047.24	1111
2047.57	1090
2047.9	1100
2048.23	1091
2048.56	1081
2048.88	1069
2049.21	1071
2049.54	1061
2049.87	1056
2050.2	1051
2050.52	1052
2050.85	1044
2051.18	1036
2051.51	1029
2051.83	1033
2052.16	1027
2052.49	1014
2052.82	1012
2053.15	1015
2053.47	1006
2053.8	1000
2054.13	1001
2054.46	1002
2054.78	996
2055.11	981
2055.44	986
2055.77	989
2056.09	980
2056.42	970
2056.75	969
2057.08	968
2057.4	965
2057.73	972
2058.06	976
2058.38	967
2058.71	960
2059.04	954
2059.37	967
2059.69	967
2060.02	950
2060.35	951
2060.67	940
2061	947
2061.33	946
2061.66	948
2061.98	940
2062.31	934
2062.64	934
2062.96	936
2063.29	940
2063.62	926
2063.94	929
2064.27	925
2064.6	936
2064.92	923
2065.25	923
2065.58	913
2065.91	895
2066.23	895
2066.56	904
2066.89	903
2067.21	905
2067.54	888
2067.87	882
2068.19	898
2068.52	885
2068.84	884
2069.17	883
2069.5	867
2069.82	859
2070.15	854
2070.48	851
2070.8	861
2071.13	843
2071.46	833
2071.78	832
2072.11	816
2072.43	818
2072.76	822
2073.09	803
2073.41	798
2073.74	798
2074.07	794
2074.39	789
2074.72	783
2075.04	777
2075.37	759
2075.7	761
2076.02	749
2076.35	742
2076.67	734
2077	721
2077.33	715
2077.65	722
2077.98	711
2078.3	708
2078.63	700
2078.95	685
2079.28	685
2079.61	684
2079.93	687
2080.26	667
2080.58	660
2080.91	657
2081.23	655
2081.56	647
2081.89	643
2082.21	640
2082.54	640
2082.86	628
2083.19	617
2083.51	621
2083.84	617
2084.16	609
2084.49	608
2084.81	604
2085.14	602
2085.46	593
2085.79	592
2086.12	588
2086.44	585
2086.77	584
2087.09	582
2087.42	585
2087.74	580
2088.07	575
2088.39	573
2088.72	579
2089.04	571
2089.37	570
2089.69	570
2090.02	570
2090.34	572
2090.67	563
2090.99	563
2091.32	569
2091.64	554
2091.97	563
2092.29	563
2092.62	569
2092.94	565
2093.26	563
2093.59	566
2093.91	565
2094.24	569
2094.56	556
2094.89	567
2095.21	568
2095.54	568
2095.86	568
2096.19	565
2096.51	575
2096.84	570
2097.16	570
2097.48	571
2097.81	571
2098.13	575
2098.46	571
2098.78	576
2099.11	572
2099.43	578
2099.75	577
2100.08	574
2100.4	580
2100.73	580
2101.05	578
2101.38	579
2101.7	580
2102.02	588
2102.35	583
2102.67	581
2103	580
2103.32	581
2103.64	583
2103.97	581
2104.29	582
2104.62	585
2104.94	578
2105.26	582
2105.59	579
2105.91	580
2106.23	585
2106.56	574
2106.88	577
2107.21	576
2107.53	575
2107.85	575
2108.18	567
2108.5	562
2108.82	558
2109.15	558
2109.47	561
2109.79	553
2110.12	552
2110.44	558
2110.76	554
2111.09	556
2111.41	549
2111.73	547
2112.06	536
2112.38	533
2112.7	536
2113.03	531
2113.35	532
2113.67	523
2114	515
2114.32	521
2114.64	516
2114.97	515
2115.29	508
2115.61	503
2115.94	495
2116.26	496
2116.58	498
2116.91	494
2117.23	485
2117.55	464
2117.87	476
2118.2	477
2118.52	470
2118.84	464
2119.17	458
2119.49	461
2119.81	455
2120.13	450
2120.46	446
2120.78	442
2121.1	435
2121.42	424
2121.75	432
2122.07	430
2122.39	427
2122.72	421
2123.04	417
2123.36	417
2123.68	412
2124.01	412
2124.33	409
2124.65	403
2124.97	404
2125.29	397
2125.62	399
2125.94	400
2126.26	396
2126.58	395
2126.91	391
2127.23	393
2127.55	385
2127.87	390
2128.2	387
2128.52	386
2128.84	387
2129.16	383
2129.48	385
2129.81	383
2130.13	382
2130.45	382
2130.77	379
2131.09	381
2131.42	381
2131.74	381
2132.06	379
2132.38	380
2132.7	378
2133.02	377
2133.35	379
2133.67	379
2133.99	381
2134.31	377
2134.63	379
2134.96	378
2135.28	378
2135.6	378
2135.92	379
2136.24	380
2136.56	379
2136.88	379
2137.21	379
2137.53	381
2137.85	377
2138.17	380
2138.49	381
2138.81	375
2139.13	377
2139.46	375
2139.78	376
2140.1	375
2140.42	375
2140.74	374
2141.06	371
2141.38	373
2141.7	369
2142.03	369
2142.35	369
2142.67	367
2142.99	360
2143.31	362
2143.63	362
2143.95	360
2144.27	361
2144.59	355
2144.91	355
2145.24	351
2145.56	350
2145.88	349
2146.2	347
2146.52	347
2146.84	343
2147.16	341
2147.48	342
2147.8	336
2148.12	334
2148.44	332
2148.76	331
2149.08	330
2149.41	326
2149.73	327
2150.05	324
2150.37	321
2150.69	318
2151.01	316
2151.33	316
2151.65	316
2151.97	312
2152.29	310
2152.61	309
2152.93	307
2153.25	302
2153.57	302
2153.89	299
2154.21	300
2154.53	296
2154.85	294
2155.17	296
2155.49	295
2155.81	291
2156.13	289
2156.45	288
2156.77	289
2157.09	286
2157.41	284
2157.73	281
2158.05	282
2158.37	282
2158.69	279
2159.01	279
2159.33	279
2159.65	276
2159.97	275
2160.29	273
2160.61	274
2160.93	272
2161.25	271
2161.57	271
2161.89	269
2162.21	270
2162.53	269
2162.85	266
2163.17	268
2163.49	263
2163.81	266
2164.13	265
2164.45	264
2164.77	265
2165.08	261
2165.4	263
2165.72	260
2166.04	260
2166.36	259
2166.68	259
2167	257
2167.32	259
2167.64	255
2167.96	257
2168.28	254
2168.6	253
2168.92	250
2169.24	251
2169.55	251
2169.87	250
2170.19	250
2170.51	249
2170.83	251
2171.15	247
2171.47	246
2171.79	246
2172.11	245
2172.43	243
2172.74	242
2173.06	242
2173.38	240
2173.7	241
2174.02	239
2174.34	239
2174.66	237
2174.98	236
2175.29	235
2175.61	235
2175.93	232
2176.25	233
2176.57	228
2176.89	231
2177.21	230
2177.52	227
2177.84	228
2178.16	227
2178.48	227
2178.8	225
2179.12	224
2179.43	225
2179.75	222
2180.07	222
2180.39	216
2180.71	218
2181.03	219
2181.34	219
2181.66	217
2181.98	217
2182.3	215
2182.62	217
2182.93	216
2183.25	214
2183.57	210
2183.89	213
2184.21	211
2184.52	210
2184.84	209
2185.16	208
2185.48	206
2185.8	208
2186.11	208
2186.43	205
2186.75	205
2187.07	205
2187.39	203
2187.7	202
2188.02	199
2188.34	201
2188.66	197
2188.97	202
2189.29	199
2189.61	200
2189.93	199
2190.24	199
2190.56	196
2190.88	198
2191.2	197
2191.51	193
2191.83	196
2192.15	194
2192.47	193
2192.78	193
2193.1	192
2193.42	191
2193.74	191
2194.05	189
2194.37	190
2194.69	189
2195	190
2195.32	186
2195.64	184
2195.96	186
2196.27	185
2196.59	185
2196.91	182
2197.22	180
2197.54	184
2197.86	181
2198.18	182
2198.49	181
2198.81	178
2199.13	180
2199.44	179
2199.76	177
2200.08	175
2200.39	175
2200.71	177
2201.03	176
2201.34	173
2201.66	173
2201.98	173
2202.29	171
2202.61	169
2202.93	170
2203.24	167
2203.56	168
2203.88	167
2204.19	168
2204.51	166
2204.83	165
2205.14	165
2205.46	165
2205.78	164
2206.09	163
2206.41	163
2206.72	164
2207.04	163
2207.36	159
2207.67	160
2207.99	159
2208.31	160
2208.62	158
2208.94	157
2209.25	156
2209.57	159
2209.89	157
2210.2	157
2210.52	156
2210.83	154
2211.15	155
2211.47	154
2211.78	154
2212.1	153
2212.41	151
2212.73	151
2213.05	153
2213.36	151
2213.68	153
2213.99	152
2214.31	151
2214.62	149
2214.94	151
2215.26	151
2215.57	148
2215.89	148
2216.2	149
2216.52	147
2216.83	149
2217.15	149
2217.46	147
2217.78	148
2218.1	148
2218.41	147
2218.73	145
2219.04	148
2219.36	146
2219.67	146
2219.99	144
2220.3	144
2220.62	144
2220.93	144
2221.25	144
2221.56	145
2221.88	140
2222.19	143
2222.51	140
2222.82	140
2223.14	139
2223.45	133
2223.77	141
2224.08	138
2224.4	140
2224.71	138
2225.03	139
2225.34	139
2225.66	137
2225.97	138
2226.29	131
2226.6	137
2226.92	134
2227.23	136
2227.55	136
2227.86	134
2228.18	133
2228.49	134
2228.81	132
2229.12	132
2229.44	131
2229.75	133
2230.07	130
2230.38	130
2230.69	129
2231.01	129
2231.32	131
2231.64	130
2231.95	130
2232.27	127
2232.58	130
2232.9	129
2233.21	129
2233.52	126
2233.84	127
2234.15	125
2234.47	124
2234.78	124
2235.1	127
2235.41	126
2235.72	126
2236.04	123
2236.35	124
2236.67	124
2236.98	122
2237.29	121
2237.61	120
2237.92	122
2238.24	122
2238.55	122
2238.86	122
2239.18	120
2239.49	119
2239.8	120
2240.12	117
2240.43	120
2240.75	121
2241.06	118
2241.37	119
2241.69	119
2242	118
2242.31	119
2242.63	119
2242.94	117
2243.26	118
2243.57	118
2243.88	115
2244.2	118
2244.51	118
2244.82	119
2245.14	117
2245.45	117
2245.76	116
2246.08	117
2246.39	113
2246.7	118
2247.02	116
2247.33	115
2247.64	114
2247.96	116
2248.27	114
2248.58	115
2248.9	113
2249.21	109
2249.52	113
2249.83	112
2250.15	112
2250.46	111
2250.77	114
2251.09	113
2251.4	111
2251.71	111
2252.03	112
2252.34	112
2252.65	112
2252.96	111
2253.28	109
2253.59	110
2253.9	110
2254.21	110
2254.53	108
2254.84	109
2255.15	109
2255.47	105
2255.78	108
2256.09	107
2256.4	105
2256.72	107
2257.03	106
2257.34	106
2257.65	106
2257.97	106
2258.28	106
2258.59	105
2258.9	103
2259.22	104
2259.53	103
2259.84	104
2260.15	103
2260.46	103
2260.78	101
2261.09	103
2261.4	103
2261.71	104
2262.03	102
2262.34	100
2262.65	99
2262.96	100
2263.27	101
2263.59	100
2263.9	99
2264.21	98
2264.52	99
2264.83	99
2265.15	99
2265.46	97
2265.77	98
2266.08	98
2266.39	96
2266.7	97
2267.02	97
2267.33	96
2267.64	97
2267.95	96
2268.26	98
2268.57	97
2268.89	97
2269.2	96
2269.51	95
2269.82	95
2270.13	97
2270.44	95
2270.76	93
2271.07	94
2271.38	91
2271.69	93
2272	92
2272.31	95
2272.62	94
2272.93	93
2273.25	89
2273.56	94
2273.87	94
2274.18	94
2274.49	92
2274.8	94
2275.11	91
2275.42	93
2275.74	93
2276.05	92
2276.36	91
2276.67	91
2276.98	93
2277.29	93
2277.6	93
2277.91	92
2278.22	91
2278.53	91
2278.85	89
2279.16	90
2279.47	91
2279.78	85
2280.09	89
2280.4	90
2280.71	91
2281.02	90
2281.33	90
2281.64	86
2281.95	88
2282.26	88
2282.57	88
2282.88	90
2283.19	89
2283.5	88
2283.82	88
2284.13	87
2284.44	85
2284.75	86
2285.06	84
2285.37	82
2285.68	85
2285.99	84
2286.3	85
2286.61	85
2286.92	84
2287.23	85
2287.54	86
2287.85	85
2288.16	86
2288.47	85
2288.78	85
2289.09	85
2289.4	84
2289.71	85
2290.02	84
2290.33	83
2290.64	83
2290.95	84
2291.26	83
2291.57	84
2291.88	84
2292.19	82
2292.5	81
2292.81	83
2293.12	0
2293.43	0
2293.74	0
2294.05	0
2294.36	0
2294.67	0
2294.98	0
2295.29	0
2295.6	0
2295.91	0
2296.21	0
2296.52	0
2296.83	0
2297.14	0
2297.45	0
2297.76	0
2298.07	0
2298.38	0
2298.69	0
2299	0
2299.31	0
2299.62	0
2299.93	0
2300.24	0
2300.55	0
2300.85	0
2301.16	0
2301.47	0
2301.78	0
2302.09	0
2302.4	0
2302.71	0
2303.02	0
2303.33	0
2303.64	0
2303.94	0
2304.25	0
2304.56	0
2304.87	0
2305.18	0
2305.49	0
2305.8	0
2306.11	0
2306.42	0
2306.72	0
2307.03	0
2307.34	0
2307.65	0
2307.96	0
2308.27	0
2308.58	0
2308.88	0
2309.19	0
2309.5	0
2309.81	0
2310.12	0
2310.43	0
2310.74	0
2311.04	0
2311.35	0
2311.66	0
2311.97	0
2312.28	0
2312.59	0
2312.89	0
2313.2	0
2313.51	0
2313.82	0
2314.13	0
2314.43	0
2314.74	0
2315.05	0
2315.36	0
2315.67	0
2315.97	0
2316.28	0
2316.59	0
2316.9	0
2317.21	0
2317.51	0
2317.82	0
2318.13	0
2318.44	0
2318.75	0
2319.05	0
2319.36	0
2319.67	0
2319.98	0
2320.28	0
2320.59	0
2320.9	0
2321.21	0
2321.51	0
2321.82	0
2322.13	0
2322.44	0
2322.74	0
2323.05	0
2323.36	0
2323.67	0
2323.97	0
2324.28	0
2324.59	0
2324.9	0
2325.2	0
2325.51	0
2325.82	0
2326.13	0
2326.43	0
2326.74	0
2327.05	0
2327.35	0
2327.66	0
2327.97	0
2328.27	0
2328.58	0
2328.89	0
2329.2	0
2329.5	0
2329.81	0
2330.12	0
2330.42	0
2330.73	0
2331.04	0
2331.34	0
2331.65	0
2331.96	0
2332.26	0
2332.57	0
2332.88	0
2333.18	0
2333.49	0
2333.8	0
2334.1	0
2334.41	0
2334.72	0
2335.02	0
2335.33	0
2335.64	0
2335.94	0
2336.25	0
2336.56	0
2336.86	0
2337.17	0
2337.48	0
2337.78	0
2338.09	0
2338.39	0
2338.7	0
2339.01	0
2339.31	0
2339.62	0
2339.93	0
2340.23	0
2340.54	0
2340.84	0
2341.15	0
2341.46	0
2341.76	0
2342.07	0
2342.37	0
2342.68	0
2342.99	0
2343.29	0
2343.6	0
2343.9	0
2344.21	0
2344.51	0
2344.82	0
2345.13	0
2345.43	0
2345.74	0
2346.04	0
2346.35	0
2346.65	0
2346.96	0
2347.27	0
2347.57	0
2347.88	0
2348.18	0
2348.49	0
2348.79	0
2349.1	0
2349.4	0
2349.71	0
2350.01	0
2350.32	0
2350.63	0
2350.93	0
2351.24	0
2351.54	0
2351.85	0
2352.15	0
2352.46	0
2352.76	0
2353.07	0
2353.37	0
2353.68	0
2353.98	0
2354.29	0
2354.59	0
2354.9	0
2355.2	0
2355.51	0
2355.81	0
2356.12	0
2356.42	0
2356.73	0
2357.03	0
2357.34	0
2357.64	0
2357.95	0
2358.25	0
2358.55	0
2358.86	0
2359.16	0
2359.47	0
2359.77	0
2360.08	0
2360.38	0
2360.69	0
2360.99	0
2361.3	0
2361.6	0
2361.9	0
2362.21	0
2362.51	0
2362.82	0
2363.12	0
2363.43	0
2363.73	0
2364.04	0
2364.34	0
2364.64	0
2364.95	0
2365.25	0
2365.56	0
2365.86	0
2366.16	0
2366.47	0
2366.77	0
2367.08	0
2367.38	0
2367.68	0
2367.99	0
2368.29	0
2368.6	0
2368.9	0
2369.2	0
2369.51	0
2369.81	0
2370.12	0
2370.42	0
2370.72	0
2371.03	0
2371.33	0
2371.63	0
2371.94	0
2372.24	0
2372.55	0
2372.85	0
2373.15	0
2373.46	0
2373.76	0
2374.06	0
2374.37	0
2374.67	0
2374.97	0
2375.28	0
2375.58	0
2375.88	0
2376.19	0
2376.49	0
2376.79	0
2377.1	0
2377.4	0
2377.7	0
2378.01	0
2378.31	0
2378.61	0
2378.92	0
2379.22	0
2379.52	0
2379.82	0
2380.13	0
2380.43	0
2380.73	0
2381.04	0
2381.34	0
2381.64	0
2381.95	0
2382.25	0
2382.55	0
2382.85	0
2383.16	0
2383.46	0
2383.76	0
2384.06	0
2384.37	0
2384.67	0
2384.97	0
2385.28	0
2385.58	0
2385.88	0
2386.18	0
2386.49	0
2386.79	0
2387.09	0
2387.39	0
2387.69	0
2388	0
2388.3	0
2388.6	0
2388.9	0
2389.21	0
2389.51	0
2389.81	0
2390.11	0
2390.42	0
2390.72	0
2391.02	0
2391.32	0
2391.62	0
2391.93	0
2392.23	0
2392.53	0
2392.83	0
2393.13	0
2393.44	0
2393.74	0
2394.04	0
2394.34	0
2394.64	0
2394.95	0
2395.25	0
2395.55	0
2395.85	0
2396.15	0
2396.45	0
2396.76	0
2397.06	0
2397.36	0
2397.66	0
2397.96	0
2398.26	0
2398.57	0
2398.87	0
2399.17	0
2399.47	0
2399.77	0
2400.07	0
2400.37	0
2400.68	0
2400.98	0
2401.28	0
2401.58	0
2401.88	0
2402.18	0
2402.48	0
2402.79	0
2403.09	0
2403.39	0
2403.69	0
2403.99	0
2404.29	0
2404.59	0
2404.89	0
2405.19	0
2405.5	0
2405.8	0
2406.1	0
2406.4	0
2406.7	0
2407	0
2407.3	0
2407.6	0
2407.9	0
2408.2	0
2408.5	0
2408.8	0
2409.11	0
2409.41	0
2409.71	0
2410.01	0
2410.31	0
2410.61	0
2410.91	0
2411.21	0
2411.51	0
2411.81	0
2412.11	0
2412.41	0
2412.71	0
2413.01	0
2413.31	0
2413.61	0
2413.91	0
2414.21	0
2414.51	0
2414.81	0
2415.12	0
2415.42	0
2415.72	0
2416.02	0
2416.32	0
2416.62	0
2416.92	0
2417.22	0
2417.52	0
2417.82	0
2418.12	0
2418.42	0
2418.72	0
2419.02	0
2419.32	0
2419.62	0
2419.92	0
2420.22	0
2420.52	0
2420.82	0
2421.12	0
2421.42	0
2421.71	0
2422.01	0
2422.31	0
2422.61	0
2422.91	0
2423.21	0
2423.51	0
2423.81	0
2424.11	0
2424.41	0
2424.71	0
2425.01	0
2425.31	0
2425.61	0
2425.91	0
2426.21	0
2426.51	0
2426.81	0
2427.11	0
2427.41	0
2427.7	0
2428	0
2428.3	0
2428.6	0
2428.9	0
2429.2	0
2429.5	0
2429.8	0
2430.1	0
2430.4	0
2430.7	0
2430.99	0
2431.29	0
2431.59	0
2431.89	0
2432.19	0
2432.49	0
2432.79	0
2433.09	0
2433.39	0
2433.68	0
2433.98	0
2434.28	0
2434.58	0
2434.88	0
2435.18	0
2435.48	0
2435.78	0
2436.07	0
2436.37	0
2436.67	0
2436.97	0
2437.27	0
2437.57	0
2437.86	0
2438.16	0
2438.46	0
2438.76	0
2439.06	0
2439.36	0
2439.66	0
2439.95	0
2440.25	0
2440.55	0
2440.85	0
2441.15	0
2441.44	0
2441.74	0
2442.04	0
2442.34	0
2442.64	0
2442.93	0
2443.23	0
2443.53	0
2443.83	0
2444.13	0
2444.42	0
2444.72	0
2445.02	0
2445.32	0
2445.62	0
2445.91	0
2446.21	0
2446.51	0
2446.81	0
2447.1	0
2447.4	0
2447.7	0
2448	0
2448.3	0
2448.59	0
2448.89	0
2449.19	0
2449.49	0
2449.78	0
2450.08	0
2450.38	0
2450.68	0
2450.97	0
2451.27	0
2451.57	0
2451.87	0
2452.16	0
2452.46	0
2452.76	0
2453.05	0
2453.35	0
2453.65	0
2453.95	0
2454.24	0
2454.54	0
2454.84	0
2455.13	0
2455.43	0
2455.73	0
2456.03	0
2456.32	0
2456.62	0
2456.92	0
2457.21	0
2457.51	0
2457.81	0
2458.1	0
2458.4	0
2458.7	0
2458.99	0
2459.29	0
2459.59	0
2459.88	0
2460.18	0
2460.48	0
2460.77	0
2461.07	0
2461.37	0
2461.66	0
2461.96	0
2462.26	0
2462.55	0
2462.85	0
2463.15	0
2463.44	0
2463.74	0
2464.04	0
2464.33	0
2464.63	0
2464.92	0
2465.22	0
2465.52	0
2465.81	0
2466.11	0
2466.41	0
2466.7	0
2467	0
2467.29	0
2467.59	0
2467.89	0
2468.18	0
2468.48	0
2468.77	0
2469.07	0
2469.37	0
2469.66	0
2469.96	0
2470.25	0
2470.55	0
2470.84	0
2471.14	0
2471.44	0
2471.73	0
2472.03	0
2472.32	0
2472.62	0
2472.91	0
2473.21	0
2473.51	0
2473.8	0
2474.1	0
2474.39	0
2474.69	0
2474.98	0
2475.28	0
2475.57	0
2475.87	0
2476.17	0
2476.46	0
2476.76	0
2477.05	0
2477.35	0
2477.64	0
2477.94	0
2478.23	0
2478.53	0
2478.82	0
2479.12	0
2479.41	0
2479.71	0
2480	0
2480.3	0
2480.59	0
2480.89	0
2481.18	0
2481.48	0
2481.77	0
2482.07	0
2482.36	0
2482.66	0
2482.95	0
2483.25	0
2483.54	0
2483.84	0
2484.13	0
2484.43	0
2484.72	0
2485.02	0
2485.31	0
2485.6	0
2485.9	0
2486.19	0
2486.49	0
2486.78	0
2487.08	0
2487.37	0
2487.67	0
2487.96	0
2488.26	0
2488.55	0
2488.84	0
2489.14	0
2489.43	0
2489.73	0
2490.02	0
2490.32	0
2490.61	0
2490.9	0
2491.2	0
2491.49	0
2491.79	0
2492.08	0
2492.37	0
2492.67	0
2492.96	0
2493.26	0
2493.55	0
2493.84	0
2494.14	0
2494.43	0
2494.73	0
2495.02	0
2495.31	0
2495.61	0
2495.9	0
2496.2	0
2496.49	0
2496.78	0
2497.08	0
2497.37	0
2497.66	0
2497.96	0
2498.25	0
2498.54	0
2498.84	0
2499.13	0
2499.43	0
2499.72	0
2500.01	0
2500.31	0
2500.6	0
2500.89	0
2501.19	0
2501.48	0
2501.77	0
2502.07	0
2502.36	0
2502.65	0
2502.95	0
2503.24	0
2503.53	0
2503.82	0
2504.12	0
2504.41	0
2504.7	0
2505	0
2505.29	0
2505.58	0
2505.88	0
2506.17	0
2506.46	0
2506.76	0
2507.05	0
2507.34	0
2507.63	0
2507.93	0
2508.22	0
2508.51	0
2508.8	0
2509.1	0
2509.39	0
2509.68	0
2509.98	0
2510.27	0
2510.56	0
2510.85	0
2511.15	0
2511.44	0
2511.73	0
2512.02	0
2512.32	0
2512.61	0
2512.9	0
2513.19	0
2513.49	0
2513.78	0
2514.07	0
2514.36	0
2514.65	0
2514.95	0
2515.24	0
2515.53	0
2515.82	0
2516.12	0
2516.41	0
2516.7	0
2516.99	0
2517.28	0
2517.58	0
2517.87	0
2518.16	0
2518.45	0
2518.74	0
2519.04	0
2519.33	0
2519.62	0
2519.91	0
2520.2	0
2520.5	0
2520.79	0
2521.08	0
2521.37	0
2521.66	0
2521.95	0
2522.25	0
2522.54	0
2522.83	0
2523.12	0
2523.41	0
2523.7	0
2523.99	0
2524.29	0
2524.58	0
2524.87	0
2525.16	0
2525.45	0
2525.74	0
2526.03	0
2526.33	0
2526.62	0
2526.91	0
2527.2	0
2527.49	0
2527.78	0
2528.07	0
2528.36	0
2528.66	0
2528.95	0
2529.24	0
2529.53	0
2529.82	0
2530.11	0
2530.4	0
2530.69	0
2530.98	0
2531.27	0
2531.57	0
2531.86	0
2532.15	0
2532.44	0
2532.73	0
2533.02	0
2533.31	0
2533.6	0
2533.89	0
2534.18	0
2534.47	0
2534.76	0
2535.05	0
2535.35	0
2535.64	0
2535.93	0
2536.22	0
2536.51	0
2536.8	0
2537.09	0
2537.38	0
2537.67	0
2537.96	0
2538.25	0
2538.54	0
2538.83	0
2539.12	0
2539.41	0
2539.7	0
2539.99	0
2540.28	0
2540.57	0
2540.86	0
2541.15	0
2541.44	0
2541.73	0
2542.02	0
2542.31	0
2542.6	0
2542.89	0
2543.18	0
2543.47	0
2543.76	0
2544.05	0
2544.34	0
2544.63	0
2544.92	0
2545.21	0
2545.5	0
2545.79	0
2546.08	0
2546.37	0
2546.66	0
2546.95	0
2547.24	0
2547.53	0
2547.82	0
2548.11	0
2548.4	0
2548.69	0
2548.98	0
2549.27	0
2549.55	0
2549.84	0
2550.13	0
2550.42	0
2550.71	0
2551	0
2551.29	0
2551.58	0
2551.87	0
2552.16	0
2552.45	0
2552.74	0
2553.03	0
2553.31	0
2553.6	0
2553.89	0
2554.18	0
2554.47	0
2554.76	0
2555.05	0
2555.34	0
2555.63	0
2555.92	0
2556.2	0
2556.49	0
2556.78	0
2557.07	0
2557.36	0
2557.65	0
2557.94	0
2558.23	0
2558.51	0
2558.8	0
2559.09	0
2559.38	0
2559.67	0
2559.96	0
2560.25	0
2560.53	0
2560.82	0
2561.11	0
2561.4	0
2561.69	0
2561.98	0
2562.27	0
2562.55	0
2562.84	0
2563.13	0
2563.42	0
2563.71	0
2564	0
2564.28	0
2564.57	0
2564.86	0
2565.15	0
2565.44	0
2565.72	0
2566.01	0
2566.3	0
2566.59	0
2566.88	0
2567.16	0
2567.45	0
2567.74	0
2568.03	0
2568.32	0
2568.6	0
2568.89	0
2569.18	0
2569.47	0
2569.75	0

