Source: Spectrum Viewer

Chart: Pulse Spectrum

Series: 
Wavelength (nm)	S (a.u.)
1179.9	0
1180.29	0
1180.68	0
1181.06	0
1181.45	0
1181.83	0
1182.22	0
1182.6	0
1182.99	0
1183.38	0
1183.76	0
1184.15	0
1184.53	0
1184.92	0
1185.3	0
1185.69	0
1186.07	0
1186.46	0
1186.85	0
1187.23	0
1187.62	0
1188	0
1188.39	0
1188.77	0
1189.16	0
1189.54	0
1189.93	0
1190.31	0
1190.7	0
1191.08	0
1191.47	0
1191.85	0
1192.24	0
1192.62	0
1193.01	0
1193.39	0
1193.78	0
1194.16	0
1194.55	0
1194.93	0
1195.32	0
1195.7	0
1196.09	0
1196.47	0
1196.86	0
1197.24	0
1197.63	0
1198.01	0
1198.4	0
1198.78	0
1199.16	0
1199.55	0
1199.93	0
1200.32	0
1200.7	0
1201.09	0
1201.47	0
1201.86	0
1202.24	0
1202.63	0
1203.01	0
1203.39	0
1203.78	0
1204.16	0
1204.55	0
1204.93	0
1205.32	0
1205.7	0
1206.08	0
1206.47	0
1206.85	0
1207.24	0
1207.62	0
1208	0
1208.39	0
1208.77	0
1209.16	0
1209.54	0
1209.92	0
1210.31	0
1210.69	0
1211.08	0
1211.46	0
1211.84	0
1212.23	0
1212.61	0
1213	0
1213.38	0
1213.76	0
1214.15	0
1214.53	0
1214.91	0
1215.3	0
1215.68	0
1216.06	0
1216.45	0
1216.83	0
1217.22	0
1217.6	0
1217.98	0
1218.37	0
1218.75	0
1219.13	0
1219.52	0
1219.9	0
1220.28	0
1220.67	0
1221.05	0
1221.43	0
1221.82	0
1222.2	0
1222.58	0
1222.97	0
1223.35	0
1223.73	0
1224.11	0
1224.5	0
1224.88	0
1225.26	0
1225.65	0
1226.03	0
1226.41	0
1226.8	0
1227.18	0
1227.56	0
1227.94	0
1228.33	0
1228.71	0
1229.09	0
1229.47	0
1229.86	0
1230.24	0
1230.62	0
1231.01	0
1231.39	0
1231.77	0
1232.15	0
1232.54	0
1232.92	0
1233.3	0
1233.68	0
1234.07	0
1234.45	0
1234.83	0
1235.21	0
1235.6	0
1235.98	0
1236.36	0
1236.74	0
1237.12	0
1237.51	0
1237.89	0
1238.27	0
1238.65	0
1239.04	0
1239.42	0
1239.8	0
1240.18	0
1240.56	0
1240.95	0
1241.33	0
1241.71	0
1242.09	0
1242.47	0
1242.86	0
1243.24	0
1243.62	0
1244	0
1244.38	0
1244.77	0
1245.15	0
1245.53	0
1245.91	0
1246.29	0
1246.67	0
1247.06	0
1247.44	0
1247.82	0
1248.2	0
1248.58	0
1248.96	0
1249.34	0
1249.73	0
1250.11	0
1250.49	0
1250.87	0
1251.25	0
1251.63	0
1252.01	0
1252.4	0
1252.78	0
1253.16	0
1253.54	0
1253.92	0
1254.3	0
1254.68	0
1255.06	0
1255.45	0
1255.83	0
1256.21	0
1256.59	0
1256.97	0
1257.35	0
1257.73	0
1258.11	0
1258.49	0
1258.87	0
1259.26	0
1259.64	0
1260.02	0
1260.4	0
1260.78	0
1261.16	0
1261.54	0
1261.92	0
1262.3	0
1262.68	0
1263.06	0
1263.44	0
1263.82	0
1264.21	0
1264.59	0
1264.97	0
1265.35	0
1265.73	0
1266.11	0
1266.49	0
1266.87	0
1267.25	0
1267.63	0
1268.01	0
1268.39	0
1268.77	0
1269.15	0
1269.53	0
1269.91	0
1270.29	0
1270.67	0
1271.05	0
1271.43	0
1271.81	0
1272.19	0
1272.57	0
1272.95	0
1273.33	0
1273.71	0
1274.09	0
1274.47	0
1274.85	0
1275.23	0
1275.61	0
1275.99	0
1276.37	0
1276.75	0
1277.13	0
1277.51	0
1277.89	0
1278.27	0
1278.65	0
1279.03	0
1279.41	0
1279.79	0
1280.17	0
1280.55	0
1280.93	0
1281.31	0
1281.69	0
1282.07	0
1282.45	0
1282.82	0
1283.2	0
1283.58	0
1283.96	0
1284.34	0
1284.72	0
1285.1	0
1285.48	0
1285.86	0
1286.24	0
1286.62	0
1287	0
1287.38	0
1287.75	0
1288.13	0
1288.51	0
1288.89	0
1289.27	0
1289.65	0
1290.03	0
1290.41	0
1290.79	0
1291.17	0
1291.54	0
1291.92	0
1292.3	0
1292.68	0
1293.06	0
1293.44	0
1293.82	0
1294.2	0
1294.57	0
1294.95	0
1295.33	0
1295.71	0
1296.09	0
1296.47	0
1296.85	0
1297.22	0
1297.6	0
1297.98	0
1298.36	0
1298.74	0
1299.12	0
1299.5	0
1299.87	0
1300.25	0
1300.63	0
1301.01	0
1301.39	0
1301.77	0
1302.14	0
1302.52	0
1302.9	0
1303.28	0
1303.66	0
1304.03	0
1304.41	0
1304.79	0
1305.17	0
1305.55	0
1305.92	0
1306.3	0
1306.68	0
1307.06	0
1307.44	0
1307.81	0
1308.19	0
1308.57	0
1308.95	0
1309.32	0
1309.7	0
1310.08	0
1310.46	0
1310.84	0
1311.21	0
1311.59	0
1311.97	0
1312.35	0
1312.72	0
1313.1	0
1313.48	0
1313.86	0
1314.23	0
1314.61	0
1314.99	0
1315.37	0
1315.74	0
1316.12	0
1316.5	0
1316.87	0
1317.25	0
1317.63	0
1318.01	0
1318.38	0
1318.76	0
1319.14	0
1319.52	0
1319.89	0
1320.27	0
1320.65	0
1321.02	0
1321.4	0
1321.78	0
1322.15	0
1322.53	0
1322.91	0
1323.29	0
1323.66	0
1324.04	0
1324.42	0
1324.79	0
1325.17	0
1325.55	0
1325.92	0
1326.3	0
1326.68	0
1327.05	0
1327.43	0
1327.81	0
1328.18	0
1328.56	0
1328.94	0
1329.31	0
1329.69	0
1330.06	0
1330.44	0
1330.82	0
1331.19	0
1331.57	0
1331.95	0
1332.32	0
1332.7	0
1333.08	0
1333.45	0
1333.83	0
1334.2	0
1334.58	0
1334.96	0
1335.33	0
1335.71	0
1336.08	0
1336.46	0
1336.84	0
1337.21	0
1337.59	0
1337.96	0
1338.34	0
1338.72	0
1339.09	0
1339.47	0
1339.84	0
1340.22	0
1340.6	0
1340.97	0
1341.35	0
1341.72	0
1342.1	0
1342.47	0
1342.85	0
1343.23	0
1343.6	0
1343.98	0
1344.35	0
1344.73	0
1345.1	0
1345.48	0
1345.85	0
1346.23	0
1346.61	0
1346.98	0
1347.36	0
1347.73	0
1348.11	0
1348.48	0
1348.86	0
1349.23	0
1349.61	0
1349.98	0
1350.36	0
1350.73	0
1351.11	0
1351.48	0
1351.86	0
1352.23	0
1352.61	0
1352.98	0
1353.36	0
1353.73	0
1354.11	0
1354.48	0
1354.86	0
1355.23	0
1355.61	0
1355.98	0
1356.36	0
1356.73	0
1357.11	0
1357.48	0
1357.86	0
1358.23	0
1358.61	0
1358.98	0
1359.35	0
1359.73	0
1360.1	0
1360.48	0
1360.85	0
1361.23	0
1361.6	0
1361.98	0
1362.35	0
1362.72	0
1363.1	0
1363.47	0
1363.85	0
1364.22	0
1364.6	0
1364.97	0
1365.34	0
1365.72	0
1366.09	0
1366.47	0
1366.84	0
1367.22	0
1367.59	0
1367.96	0
1368.34	0
1368.71	0
1369.09	0
1369.46	-1
1369.83	-0.76
1370.21	-0.76
1370.58	-0.64
1370.96	-0.64
1371.33	0.52
1371.7	0.28
1372.08	0.48
1372.45	0.36
1372.82	0.36
1373.2	0.2
1373.57	0.36
1373.95	0.16
1374.32	0.16
1374.69	0.16
1375.07	0.16
1375.44	0
1375.81	0
1376.19	0
1376.56	0
1376.93	0
1377.31	0
1377.68	0.24
1378.05	0.24
1378.43	0.24
1378.8	0.36
1379.17	0.36
1379.55	0.12
1379.92	0.12
1380.29	0.12
1380.67	0
1381.04	0.24
1381.41	0.24
1381.79	0.24
1382.16	0.24
1382.53	0.28
1382.91	-0.92
1383.28	-0.92
1383.65	-0.76
1384.03	-0.76
1384.4	-0.68
1384.77	0.28
1385.14	0.28
1385.52	0.16
1385.89	0.16
1386.26	0.2
1386.64	0.2
1387.01	0.2
1387.38	0.24
1387.75	0.24
1388.13	0.08
1388.5	0.08
1388.87	0.08
1389.25	0
1389.62	-0.2
1389.99	-0.4
1390.36	-0.4
1390.74	-0.4
1391.11	-0.4
1391.48	-0.2
1391.85	0
1392.23	0.12
1392.6	0.12
1392.97	0.12
1393.34	0.24
1393.72	0.28
1394.09	0.16
1394.46	0.16
1394.83	0.2
1395.21	0.08
1395.58	0.16
1395.95	0.16
1396.32	0.16
1396.69	0.12
1397.07	0.12
1397.44	0.08
1397.81	0.08
1398.18	0.32
1398.55	0.36
1398.93	0.36
1399.3	0.4
1399.67	0.4
1400.04	0.2
1400.41	0.16
1400.79	0.16
1401.16	0.16
1401.53	0.16
1401.9	0.12
1402.27	0.12
1402.65	0.2
1403.02	0.08
1403.39	0.08
1403.76	-0.32
1404.13	-0.24
1404.51	-0.32
1404.88	-0.28
1405.25	-0.28
1405.62	0.28
1405.99	0.2
1406.36	0.28
1406.74	0.28
1407.11	0.28
1407.48	0.12
1407.85	-0.96
1408.22	-1.04
1408.59	-1.08
1408.96	-1
1409.34	-1
1409.71	0.08
1410.08	0.08
1410.45	0.08
1410.82	0
1411.19	0
1411.56	0.08
1411.93	0.12
1412.31	0.12
1412.68	0.12
1413.05	0.12
1413.42	0.04
1413.79	0.04
1414.16	-0.16
1414.53	-0.16
1414.9	-0.36
1415.27	-0.2
1415.65	-0.24
1416.02	-0.04
1416.39	-0.04
1416.76	0.16
1417.13	0
1417.5	0
1417.87	0
1418.24	0
1418.61	0.12
1418.98	0.12
1419.35	0.24
1419.73	0.24
1420.1	0.24
1420.47	0.12
1420.84	0.12
1421.21	0
1421.58	0.16
1421.95	0.16
1422.32	0.2
1422.69	0.2
1423.06	0.2
1423.43	0.04
1423.8	0.2
1424.17	0.2
1424.54	0.2
1424.91	0.48
1425.28	0.48
1425.65	0.32
1426.02	0.36
1426.39	0.36
1426.76	-0.48
1427.14	-0.36
1427.51	-0.36
1427.88	-0.44
1428.25	-0.44
1428.62	0.12
1428.99	0.12
1429.36	0.32
1429.73	0.48
1430.1	0.48
1430.47	0.48
1430.84	0.36
1431.21	0.16
1431.58	0
1431.95	0.04
1432.32	-0.16
1432.69	-0.16
1433.06	-0.16
1433.43	0.04
1433.8	0
1434.17	0.2
1434.54	0.2
1434.91	0.24
1435.28	0.12
1435.64	0.36
1436.01	-0.12
1436.38	-0.12
1436.75	-0.16
1437.12	-0.24
1437.49	-0.04
1437.86	0.44
1438.23	0.44
1438.6	0.44
1438.97	0.44
1439.34	0
1439.71	0
1440.08	0
1440.45	0
1440.82	-0.6
1441.19	-0.6
1441.56	-0.6
1441.93	-0.6
1442.3	-0.56
1442.67	-1.56
1443.03	-1.56
1443.4	-1.56
1443.77	-1.44
1444.14	-1.48
1444.51	0.12
1444.88	0.12
1445.25	0.12
1445.62	0
1445.99	0
1446.36	0
1446.73	0
1447.09	0
1447.46	0
1447.83	0.12
1448.2	0.2
1448.57	0.12
1448.94	0.12
1449.31	0.12
1449.68	6.66107e-18
1450.05	-0.08
1450.41	0.28
1450.78	-0.12
1451.15	-0.12
1451.52	-0.12
1451.89	-0.08
1452.26	-0.24
1452.63	0.16
1453	0.2
1453.36	0.2
1453.73	0.16
1454.1	0.04
1454.47	0.04
1454.84	0
1455.21	0
1455.57	-0.28
1455.94	-0.28
1456.31	-0.12
1456.68	0.04
1457.05	0.04
1457.42	0.32
1457.78	0.4
1458.15	0.24
1458.52	0.08
1458.89	0.16
1459.26	0.16
1459.63	0.08
1459.99	0.08
1460.36	0.08
1460.73	0.52
1461.1	0.52
1461.47	0.52
1461.83	0.52
1462.2	0.56
1462.57	0.08
1462.94	0.08
1463.31	0.08
1463.67	0.08
1464.04	-0.12
1464.41	-0.04
1464.78	-0.64
1465.15	-0.64
1465.51	-0.64
1465.88	-0.48
1466.25	-0.6
1466.62	0
1466.98	0.04
1467.35	0.04
1467.72	0.08
1468.09	0.08
1468.46	0.32
1468.82	0.28
1469.19	0.28
1469.56	0.24
1469.93	0.32
1470.29	0.08
1470.66	0.12
1471.03	0.12
1471.4	0.12
1471.76	0.12
1472.13	0.28
1472.5	0.24
1472.86	0.24
1473.23	0.32
1473.6	0.24
1473.97	0.08
1474.33	0.32
1474.7	0.32
1475.07	0.24
1475.44	0.24
1475.8	0.04
1476.17	-0.2
1476.54	-0.2
1476.9	-0.2
1477.27	-0.2
1477.64	0
1478	0
1478.37	0
1478.74	0
1479.11	0.04
1479.47	0.04
1479.84	0.04
1480.21	0.04
1480.57	0.08
1480.94	0.04
1481.31	0.28
1481.67	0.4
1482.04	0.4
1482.41	0.44
1482.77	0.44
1483.14	0.2
1483.51	0.08
1483.87	0.08
1484.24	0.12
1484.61	0.12
1484.97	0.2
1485.34	0.6
1485.71	-0.4
1486.07	2.88398e-17
1486.44	2.88398e-17
1486.81	-0.08
1487.17	-0.48
1487.54	0.52
1487.9	0
1488.27	0
1488.64	-0.2
1489	-0.04
1489.37	-0.04
1489.74	-0.04
1490.1	1.05473e-17
1490.47	0.24
1490.83	0.08
1491.2	0.16
1491.57	0.16
1491.93	0.12
1492.3	0.08
1492.66	0.08
1493.03	0.24
1493.4	0.44
1493.76	0.44
1494.13	0.48
1494.49	0.48
1494.86	0.32
1495.23	0.12
1495.59	0.12
1495.96	-1.28
1496.32	-1
1496.69	-1.08
1497.06	-1.08
1497.42	-1.88
1497.79	-0.52
1498.15	-0.8
1498.52	-0.6
1498.88	-0.6
1499.25	0.2
1499.62	-0.2
1499.98	-0.2
1500.35	-0.32
1500.71	-0.32
1501.08	-0.32
1501.44	0.08
1501.81	0.08
1502.17	0
1502.54	0
1502.9	0
1503.27	0.04
1503.64	0.04
1504	0.28
1504.37	0.44
1504.73	0.44
1505.1	0.4
1505.46	0.56
1505.83	0.32
1506.19	0.16
1506.56	0.16
1506.92	0.16
1507.29	0
1507.65	0.08
1508.02	0.24
1508.38	0.24
1508.75	0.4
1509.11	0.44
1509.48	0.36
1509.84	0.48
1510.21	0.48
1510.57	0.32
1510.94	0.28
1511.3	0.32
1511.67	0.08
1512.03	0.24
1512.4	0.44
1512.76	0.44
1513.13	-0.56
1513.49	-0.76
1513.85	-0.92
1514.22	-1.12
1514.58	-1.12
1514.95	0.08
1515.31	0.24
1515.68	0.24
1516.04	0.4
1516.41	0.4
1516.77	0.16
1517.14	0.32
1517.5	0.32
1517.86	0.24
1518.23	0.24
1518.59	0.24
1518.96	0.28
1519.32	0.28
1519.69	0.2
1520.05	0.4
1520.41	0.4
1520.78	0.2
1521.14	0.32
1521.51	0.68
1521.87	0.48
1522.24	0.48
1522.6	0.76
1522.96	0.64
1523.33	0.28
1523.69	0.28
1524.06	0.32
1524.42	0.04
1524.78	0.04
1525.15	0.08
1525.51	0.08
1525.88	0.24
1526.24	0.24
1526.6	0.28
1526.97	0.24
1527.33	0.32
1527.69	0.12
1528.06	0.12
1528.42	0.08
1528.79	0.08
1529.15	-0.68
1529.51	-0.48
1529.88	-0.48
1530.24	-0.48
1530.6	-0.48
1530.97	0.2
1531.33	0
1531.69	0.08
1532.06	0.08
1532.42	0.16
1532.78	0.16
1533.15	0.2
1533.51	0.12
1533.87	0.12
1534.24	0.12
1534.6	0.12
1534.96	0.12
1535.33	0.12
1535.69	0.32
1536.05	0.24
1536.42	0.24
1536.78	0.44
1537.14	0.44
1537.51	0.24
1537.87	0.36
1538.23	0.4
1538.6	0.24
1538.96	0.4
1539.32	0.48
1539.68	0.44
1540.05	0.4
1540.41	0.32
1540.77	0.4
1541.14	0.36
1541.5	0.44
1541.86	0.48
1542.23	0.72
1542.59	0.52
1542.95	0.48
1543.31	0.32
1543.68	0.28
1544.04	0.04
1544.4	0
1544.76	0.12
1545.13	0.12
1545.49	0.12
1545.85	0.12
1546.21	0.12
1546.58	0
1546.94	0
1547.3	0
1547.66	0
1548.03	0.16
1548.39	0.2
1548.75	0.2
1549.11	0.32
1549.48	0.32
1549.84	0.2
1550.2	0.2
1550.56	0.24
1550.93	0.24
1551.29	0.48
1551.65	0.64
1552.01	0.6
1552.37	0.56
1552.74	0.76
1553.1	0.52
1553.46	0.32
1553.82	0.32
1554.18	0.36
1554.55	0.2
1554.91	0.2
1555.27	0.2
1555.63	0.36
1555.99	0.32
1556.36	0.16
1556.72	-1.4
1557.08	-1.36
1557.44	-1.52
1557.8	-1.52
1558.17	-1.52
1558.53	0.36
1558.89	0.36
1559.25	0.6
1559.61	0.64
1559.97	0.88
1560.34	0.64
1560.7	0.6
1561.06	0.44
1561.42	0.4
1561.78	0.36
1562.14	0.08
1562.5	0.08
1562.87	0
1563.23	0
1563.59	-0.56
1563.95	-0.36
1564.31	-0.24
1564.67	-0.12
1565.03	-0.12
1565.4	0.32
1565.76	0.32
1566.12	0.2
1566.48	0.08
1566.84	0.08
1567.2	0
1567.56	-0.12
1567.92	0.04
1568.29	0.04
1568.65	0.04
1569.01	0.04
1569.37	-0.24
1569.73	0.04
1570.09	0.48
1570.45	0.48
1570.81	0.52
1571.17	1.04
1571.53	0.8
1571.89	0.48
1572.26	0.52
1572.62	0.52
1572.98	0.4
1573.34	0.4
1573.7	0.44
1574.06	0.44
1574.42	0.56
1574.78	0.36
1575.14	0.16
1575.5	2.77556e-17
1575.86	-0.44
1576.22	-0.6
1576.58	0.28
1576.94	0.4
1577.3	0.4
1577.67	0.8
1578.03	0.88
1578.39	0.2
1578.75	0.2
1579.11	0.2
1579.47	0.24
1579.83	0.4
1580.19	0.48
1580.55	0.36
1580.91	0.36
1581.27	0.36
1581.63	0.12
1581.99	0.04
1582.35	0.32
1582.71	0.32
1583.07	0.4
1583.43	0.76
1583.79	0.88
1584.15	0.6
1584.51	1
1584.87	1.04
1585.23	0.68
1585.59	0.8
1585.95	0.8
1586.31	0.44
1586.67	0.32
1587.03	0.32
1587.39	0.08
1587.75	0.4
1588.11	0.36
1588.47	0.56
1588.83	0.56
1589.19	0.72
1589.55	0.56
1589.91	0.56
1590.27	0.32
1590.63	0.44
1590.99	0.32
1591.35	0.32
1591.71	0.4
1592.07	0.52
1592.42	0.4
1592.78	0.44
1593.14	0.28
1593.5	0.2
1593.86	0.08
1594.22	0.12
1594.58	0.28
1594.94	0.4
1595.3	0.4
1595.66	0.6
1596.02	0.64
1596.38	0.48
1596.74	0.4
1597.1	0.52
1597.46	0.36
1597.81	0.28
1598.17	0.24
1598.53	0.2
1598.89	0.08
1599.25	0.04
1599.61	0.4
1599.97	0.52
1600.33	0.8
1600.69	0.84
1601.05	0.88
1601.4	0.52
1601.76	0.08
1602.12	-0.2
1602.48	-0.24
1602.84	-0.28
1603.2	2.66443e-17
1603.56	0.28
1603.92	0.36
1604.28	0.36
1604.63	0.64
1604.99	0.4
1605.35	0.64
1605.71	0.56
1606.07	0.72
1606.43	0.44
1606.79	0.52
1607.14	0.32
1607.5	0.4
1607.86	0.4
1608.22	0.4
1608.58	0.68
1608.94	0.64
1609.29	0.72
1609.65	0.44
1610.01	0.56
1610.37	0.16
1610.73	0.16
1611.09	0.12
1611.44	0.84
1611.8	0.76
1612.16	0.76
1612.52	0.76
1612.88	0.8
1613.24	0.24
1613.59	0.24
1613.95	0.28
1614.31	0.32
1614.67	0.2
1615.03	0.16
1615.38	0.28
1615.74	0.28
1616.1	0.24
1616.46	0.2
1616.82	0.28
1617.17	0.16
1617.53	0.2
1617.89	0.2
1618.25	0.24
1618.6	0.24
1618.96	0.24
1619.32	0.16
1619.68	0.16
1620.04	0.16
1620.39	0.08
1620.75	0.24
1621.11	0.24
1621.47	0.36
1621.82	0.68
1622.18	0.68
1622.54	0.56
1622.9	0.8
1623.25	0.04
1623.61	-0.12
1623.97	-0.12
1624.33	-0.2
1624.68	-0.64
1625.04	0
1625.4	-0.2
1625.75	-0.6
1626.11	-0.56
1626.47	-0.36
1626.83	-0.24
1627.18	-0.24
1627.54	0.28
1627.9	0.24
1628.26	0.32
1628.61	0.36
1628.97	0.36
1629.33	0.44
1629.68	0.44
1630.04	0.44
1630.4	-0.28
1630.75	-0.28
1631.11	-0.28
1631.47	-0.48
1631.83	-0.56
1632.18	0
1632.54	0.12
1632.9	-0.08
1633.25	0.12
1633.61	0.2
1633.97	0.24
1634.32	0.12
1634.68	0.12
1635.04	0.12
1635.39	0.16
1635.75	0.16
1636.11	0.32
1636.46	0.36
1636.82	0.44
1637.18	0.36
1637.53	0.44
1637.89	0.28
1638.25	0.24
1638.6	0.16
1638.96	0.16
1639.31	0.04
1639.67	0.12
1640.03	0.2
1640.38	0.2
1640.74	0.16
1641.1	0.16
1641.45	0.08
1641.81	0
1642.16	0
1642.52	0.16
1642.88	0.6
1643.23	5.55112e-17
1643.59	5.55112e-17
1643.95	5.55112e-17
1644.3	-0.16
1644.66	-0.56
1645.01	0.08
1645.37	0.16
1645.73	0.16
1646.08	0.16
1646.44	0.48
1646.79	-0.16
1647.15	-0.24
1647.51	-0.24
1647.86	-0.12
1648.22	-0.48
1648.57	-0.68
1648.93	-0.52
1649.28	-0.48
1649.64	-0.6
1650	-0.6
1650.35	0.32
1650.71	0.24
1651.06	0.24
1651.42	0.36
1651.77	0.16
1652.13	0.36
1652.48	0.32
1652.84	0.28
1653.2	0.16
1653.55	0.36
1653.91	0.04
1654.26	0
1654.62	0.44
1654.97	0.44
1655.33	0.6
1655.68	0.6
1656.04	0.6
1656.39	0.16
1656.75	0.16
1657.1	0.04
1657.46	0.12
1657.81	0.24
1658.17	0.24
1658.52	0.28
1658.88	0.64
1659.23	0.64
1659.59	0.52
1659.94	0.52
1660.3	0.52
1660.65	0.12
1661.01	0.28
1661.36	0.28
1661.72	0.28
1662.07	0.4
1662.43	0.48
1662.78	0.6
1663.14	0.6
1663.49	0.64
1663.85	0.96
1664.2	1.12
1664.56	0.76
1664.91	-1.04
1665.27	-1
1665.62	-1.44
1665.98	-1.44
1666.33	-0.84
1666.69	1.24
1667.04	1.56
1667.39	1.56
1667.75	1.32
1668.1	1.08
1668.46	0.8
1668.81	0.48
1669.17	0.48
1669.52	0.72
1669.88	0.52
1670.23	0.72
1670.58	0.84
1670.94	1.24
1671.29	1.4
1671.65	1.24
1672	1.44
1672.36	1.4
1672.71	1.52
1673.06	1.16
1673.42	1.8
1673.77	2.08
1674.13	2.36
1674.48	2.2
1674.83	2.76
1675.19	2.68
1675.54	2.64
1675.9	2.2
1676.25	2.4
1676.6	2.36
1676.96	1.96
1677.31	1.6
1677.67	1.84
1678.02	2.24
1678.37	2.36
1678.73	2.88
1679.08	2.92
1679.43	2.88
1679.79	1.96
1680.14	1.56
1680.5	0.92
1680.85	1.24
1681.2	1.16
1681.56	1.32
1681.91	1.84
1682.26	1.96
1682.62	1.56
1682.97	2.04
1683.32	2.04
1683.68	1.68
1684.03	2
1684.38	2.88
1684.74	3.12
1685.09	3.6
1685.44	3.56
1685.8	3.76
1686.15	3.44
1686.5	3
1686.86	2.84
1687.21	2.76
1687.56	2.48
1687.92	1.92
1688.27	1.64
1688.62	1.32
1688.98	1.96
1689.33	2.12
1689.68	2.16
1690.03	2.4
1690.39	2.76
1690.74	2.08
1691.09	2
1691.45	2.16
1691.8	2.04
1692.15	2
1692.5	3.24
1692.86	3.24
1693.21	3.16
1693.56	3.4
1693.92	3.08
1694.27	1.44
1694.62	1.68
1694.97	1.72
1695.33	2
1695.68	1.96
1696.03	2.48
1696.38	2.12
1696.74	2.44
1697.09	1.48
1697.44	1.84
1697.79	1.92
1698.15	2.24
1698.5	2.2
1698.85	2.48
1699.2	1.44
1699.56	1.2
1699.91	0.72
1700.26	0.36
1700.61	0.68
1700.97	1.72
1701.32	2
1701.67	1.88
1702.02	2.08
1702.37	1.88
1702.73	2.72
1703.08	2.52
1703.43	2.72
1703.78	2.92
1704.13	3.04
1704.49	1.8
1704.84	1.48
1705.19	1.56
1705.54	1.32
1705.89	1.08
1706.25	2
1706.6	2.44
1706.95	2.44
1707.3	2.4
1707.65	2.88
1708.01	2.48
1708.36	2.28
1708.71	2.32
1709.06	2.56
1709.41	3.2
1709.76	3.52
1710.12	3.52
1710.47	3.32
1710.82	3.12
1711.17	2.32
1711.52	1.72
1711.87	2.12
1712.23	2.72
1712.58	2.64
1712.93	2.56
1713.28	2.44
1713.63	2.84
1713.98	2.04
1714.33	2.52
1714.69	2.64
1715.04	2.96
1715.39	2.08
1715.74	2.84
1716.09	2.76
1716.44	3.08
1716.79	2.92
1717.14	3.88
1717.5	3.24
1717.85	3.12
1718.2	4.36
1718.55	4.52
1718.9	3.88
1719.25	4.72
1719.6	4.36
1719.95	3
1720.3	3.08
1720.65	2.76
1721.01	2.64
1721.36	3.64
1721.71	3.04
1722.06	2.68
1722.41	3.72
1722.76	4.44
1723.11	3.76
1723.46	4.92
1723.81	5.68
1724.16	5.64
1724.51	4.88
1724.86	5.52
1725.21	5
1725.56	4.88
1725.92	5.36
1726.27	5.6
1726.62	5.12
1726.97	5.16
1727.32	4.6
1727.67	4.24
1728.02	5.24
1728.37	6.04
1728.72	6.08
1729.07	6.76
1729.42	6.48
1729.77	5.84
1730.12	4.88
1730.47	6.2
1730.82	6.96
1731.17	7.04
1731.52	7.2
1731.87	7.48
1732.22	7
1732.57	6.72
1732.92	7.24
1733.27	7
1733.62	7.68
1733.97	6.64
1734.32	6.6
1734.67	6.28
1735.02	6.2
1735.37	5.72
1735.72	5.92
1736.07	6.36
1736.42	6.88
1736.77	7
1737.12	7.24
1737.47	7.32
1737.82	7.76
1738.17	7.12
1738.52	6.8
1738.87	7.48
1739.22	8.08
1739.57	6.6
1739.92	6.32
1740.27	5.84
1740.62	4.36
1740.97	3.96
1741.32	4.04
1741.67	3.96
1742.02	4.4
1742.37	5.04
1742.72	4.36
1743.06	4.32
1743.41	5.04
1743.76	5.28
1744.11	4.28
1744.46	5.24
1744.81	5.32
1745.16	4.12
1745.51	3.88
1745.86	4.96
1746.21	4.6
1746.56	5.56
1746.91	6.44
1747.26	6.24
1747.6	5.36
1747.95	4.96
1748.3	3.72
1748.65	2.76
1749	3.92
1749.35	4.6
1749.7	5.08
1750.05	4.72
1750.4	5.76
1750.75	4.36
1751.09	3.36
1751.44	2.76
1751.79	2
1752.14	1.16
1752.49	1.56
1752.84	1.68
1753.19	1.48
1753.54	2.4
1753.88	2.16
1754.23	1.96
1754.58	2.2
1754.93	2.4
1755.28	2.12
1755.63	2.12
1755.98	1.6
1756.32	1.48
1756.67	1.04
1757.02	1.04
1757.37	0.96
1757.72	0.8
1758.07	0.6
1758.42	0.68
1758.76	0.64
1759.11	0.48
1759.46	0.72
1759.81	0.76
1760.16	1.36
1760.5	1.12
1760.85	0.96
1761.2	0.92
1761.55	0.88
1761.9	0.36
1762.25	0.52
1762.59	0.76
1762.94	1.12
1763.29	1
1763.64	0.84
1763.99	1.12
1764.33	1.08
1764.68	0.44
1765.03	0.48
1765.38	0.76
1765.73	0.6
1766.07	0.8
1766.42	1.24
1766.77	1.24
1767.12	1.16
1767.46	1.04
1767.81	0.84
1768.16	0.4
1768.51	0.4
1768.85	0.44
1769.2	1.52
1769.55	1.96
1769.9	2.12
1770.25	2.48
1770.59	2.64
1770.94	1.84
1771.29	1.68
1771.64	2.08
1771.98	2.04
1772.33	2.68
1772.68	3.56
1773.02	3.88
1773.37	4.76
1773.72	5.4
1774.07	5.56
1774.41	6.24
1774.76	6.48
1775.11	6.52
1775.46	6.92
1775.8	6.12
1776.15	5.12
1776.5	5.48
1776.84	6.56
1777.19	7.08
1777.54	9.96
1777.89	11.92
1778.23	13.16
1778.58	14.04
1778.93	16.8
1779.27	16.36
1779.62	16.8
1779.97	18.56
1780.31	18.68
1780.66	17.56
1781.01	17.84
1781.35	20.84
1781.7	22.36
1782.05	23.36
1782.39	24.92
1782.74	26.64
1783.09	27.84
1783.43	28.2
1783.78	29.72
1784.13	32.32
1784.47	32.88
1784.82	30.16
1785.17	31.04
1785.51	32.72
1785.86	34.8
1786.21	41.4
1786.55	45.12
1786.9	50.28
1787.25	52.96
1787.59	51.64
1787.94	49.68
1788.29	51.28
1788.63	49.76
1788.98	50.44
1789.32	54.44
1789.67	53.48
1790.02	52.64
1790.36	60.48
1790.71	66.52
1791.06	69.84
1791.4	77.64
1791.75	85.6
1792.09	95.68
1792.44	103.6
1792.79	102.68
1793.13	109.88
1793.48	116.36
1793.82	104.52
1794.17	98.84
1794.52	102.4
1794.86	92.68
1795.21	88.72
1795.55	79.6
1795.9	67.24
1796.24	80.04
1796.59	97.52
1796.94	108.16
1797.28	131.32
1797.63	147.2
1797.97	138.04
1798.32	129.4
1798.66	129.4
1799.01	133.92
1799.36	132.96
1799.7	137.52
1800.05	147.16
1800.39	136.44
1800.74	134.64
1801.08	160.2
1801.43	174.52
1801.77	175.44
1802.12	181.24
1802.46	184.88
1802.81	173.04
1803.15	157.44
1803.5	151.64
1803.85	149
1804.19	132
1804.54	129.32
1804.88	134.24
1805.23	130.04
1805.57	143.12
1805.92	169.36
1806.26	178.6
1806.61	181.88
1806.95	195.96
1807.3	221.4
1807.64	232.28
1807.99	233.96
1808.33	237.92
1808.68	226.08
1809.02	218.08
1809.37	235.6
1809.71	243.96
1810.06	253.28
1810.4	264.16
1810.75	242.04
1811.09	224.32
1811.43	249
1811.78	275.08
1812.12	318.48
1812.47	347
1812.81	343.76
1813.16	332.04
1813.5	314.6
1813.85	281.32
1814.19	275
1814.54	263.24
1814.88	235.16
1815.23	219.48
1815.57	194.88
1815.91	157.68
1816.26	153.8
1816.6	182.6
1816.95	198.04
1817.29	225.32
1817.64	270.96
1817.98	308.68
1818.32	333.04
1818.67	346.96
1819.01	361.64
1819.36	370.44
1819.7	340.8
1820.05	308.72
1820.39	315.24
1820.73	302.72
1821.08	284.92
1821.42	296
1821.77	279.72
1822.11	236.12
1822.45	229.6
1822.8	222.2
1823.14	193.76
1823.49	217.16
1823.83	272.4
1824.17	304.64
1824.52	335.92
1824.86	371.12
1825.2	361.36
1825.55	325.8
1825.89	283.56
1826.24	263.04
1826.58	294.24
1826.92	310.96
1827.27	318.12
1827.61	355.76
1827.95	356.88
1828.3	308.36
1828.64	283.12
1828.98	256.96
1829.33	227.64
1829.67	269.44
1830.02	296.2
1830.36	309.96
1830.7	371
1831.05	401.8
1831.39	363.56
1831.73	358.04
1832.08	357.44
1832.42	313.64
1832.76	298.68
1833.1	289.6
1833.45	263.48
1833.79	251.96
1834.13	248.08
1834.48	235.8
1834.82	245.24
1835.16	257.64
1835.51	250.88
1835.85	250.56
1836.19	244.6
1836.54	211.48
1836.88	191.52
1837.22	170.48
1837.56	150.64
1837.91	154.6
1838.25	185.96
1838.59	206.72
1838.94	232.16
1839.28	248
1839.62	238.52
1839.96	223.44
1840.31	200.68
1840.65	171.12
1840.99	173.48
1841.34	222.76
1841.68	242.12
1842.02	265.56
1842.36	302.72
1842.71	287.92
1843.05	228.48
1843.39	228.4
1843.73	242.48
1844.08	256.08
1844.42	304.68
1844.76	340.92
1845.1	322.72
1845.45	297.12
1845.79	280.32
1846.13	253.48
1846.47	240.96
1846.81	229.92
1847.16	227.68
1847.5	241.32
1847.84	256.92
1848.18	262.36
1848.53	284.04
1848.87	290
1849.21	265.56
1849.55	245.88
1849.89	233.24
1850.24	213.44
1850.58	203.6
1850.92	198.48
1851.26	187.6
1851.6	186.16
1851.95	183.92
1852.29	174.88
1852.63	176.2
1852.97	168.6
1853.31	151.16
1853.66	142.36
1854	134.16
1854.34	129.64
1854.68	149.36
1855.02	161.8
1855.36	163.84
1855.71	174.8
1856.05	169.36
1856.39	143.64
1856.73	132.24
1857.07	126.76
1857.41	116.72
1857.76	115.4
1858.1	114.6
1858.44	107
1858.78	108.48
1859.12	103
1859.46	90.16
1859.8	82.84
1860.15	76.32
1860.49	78.76
1860.83	95.04
1861.17	107.68
1861.51	105.68
1861.85	111.52
1862.19	95.48
1862.53	78.44
1862.88	74.32
1863.22	77.84
1863.56	71
1863.9	75.16
1864.24	78.32
1864.58	68.12
1864.92	63.12
1865.26	65.16
1865.6	58.12
1865.94	49.12
1866.29	45.76
1866.63	40.92
1866.97	37.36
1867.31	35
1867.65	31.6
1867.99	31.72
1868.33	31
1868.67	25.84
1869.01	23.56
1869.35	28.4
1869.69	41.2
1870.03	49.92
1870.37	58.56
1870.72	67.84
1871.06	64.8
1871.4	48.96
1871.74	36.92
1872.08	28.36
1872.42	27.12
1872.76	36.32
1873.1	39.72
1873.44	40.16
1873.78	38.36
1874.12	29.28
1874.46	16.6
1874.8	19.68
1875.14	29.56
1875.48	34.92
1875.82	38.72
1876.16	40.64
1876.5	38.32
1876.84	32.36
1877.18	29.32
1877.52	25.24
1877.86	19.84
1878.2	13.04
1878.54	6.68
1878.88	4.84
1879.22	4.88
1879.56	6.76
1879.9	6.4
1880.24	7.64
1880.58	8.12
1880.92	10.36
1881.26	9.2
1881.6	9.08
1881.94	8.04
1882.28	8.48
1882.62	9.12
1882.96	17.68
1883.3	22.72
1883.64	23.56
1883.98	22.72
1884.32	20.08
1884.66	10.84
1885	5.64
1885.34	5.6
1885.68	5.56
1886.02	5.56
1886.36	5.16
1886.7	4.52
1887.04	4.6
1887.38	4.16
1887.72	3.92
1888.06	3.28
1888.39	5.48
1888.73	7
1889.07	15.48
1889.41	21.6
1889.75	23.72
1890.09	28.16
1890.43	29.48
1890.77	21.48
1891.11	14.44
1891.45	13
1891.79	7.92
1892.13	4.76
1892.47	5.28
1892.8	6.2
1893.14	7.76
1893.48	9.96
1893.82	14.56
1894.16	14.28
1894.5	14.64
1894.84	14.36
1895.18	12.88
1895.52	9.04
1895.86	10.36
1896.19	12.64
1896.53	13
1896.87	14.28
1897.21	15.8
1897.55	16.2
1897.89	17.36
1898.23	24.88
1898.57	25.36
1898.9	24.24
1899.24	25.84
1899.58	26.52
1899.92	19.76
1900.26	21.56
1900.6	24.24
1900.94	23.84
1901.27	24.64
1901.61	28
1901.95	27.4
1902.29	29.16
1902.63	33.4
1902.97	34.8
1903.3	34.84
1903.64	38.28
1903.98	39.16
1904.32	38.8
1904.66	39.2
1905	40.68
1905.33	40.84
1905.67	43.88
1906.01	45.88
1906.35	47.64
1906.69	49.2
1907.02	49.28
1907.36	48.2
1907.7	47.96
1908.04	49.2
1908.38	51.36
1908.71	52.08
1909.05	53.6
1909.39	55.52
1909.73	55
1910.07	53.28
1910.4	55
1910.74	56.12
1911.08	56.24
1911.42	58.56
1911.76	61.28
1912.09	61.72
1912.43	63.24
1912.77	64.88
1913.11	65.48
1913.44	66.16
1913.78	68.64
1914.12	70.64
1914.46	71.24
1914.79	72.24
1915.13	74.52
1915.47	74.08
1915.81	74
1916.14	75.92
1916.48	76.68
1916.82	76.08
1917.16	79.6
1917.49	81.88
1917.83	81.28
1918.17	83.72
1918.5	86.08
1918.84	85.84
1919.18	84.8
1919.52	87.2
1919.85	87.24
1920.19	86.64
1920.53	88.96
1920.87	90.84
1921.2	90.72
1921.54	92.76
1921.88	96.04
1922.21	94.72
1922.55	96.36
1922.89	99
1923.22	98.8
1923.56	98.8
1923.9	101.32
1924.23	102.76
1924.57	101.6
1924.91	104.24
1925.25	105.08
1925.58	104.2
1925.92	103.28
1926.26	107.96
1926.59	105.76
1926.93	106.56
1927.27	108.88
1927.6	110.96
1927.94	107.04
1928.28	111.6
1928.61	110.92
1928.95	110.68
1929.29	111.12
1929.62	115.72
1929.96	111.84
1930.29	113.76
1930.63	115.6
1930.97	116.04
1931.3	113.84
1931.64	117.56
1931.98	119.24
1932.31	117.24
1932.65	118.76
1932.99	119.8
1933.32	120.08
1933.66	120.64
1933.99	123.4
1934.33	122.72
1934.67	125.8
1935	125.24
1935.34	122.92
1935.67	125
1936.01	125.44
1936.35	122.88
1936.68	123.12
1937.02	125.76
1937.35	122.64
1937.69	122.28
1938.03	125.64
1938.36	123.64
1938.7	124.8
1939.03	127.08
1939.37	129.44
1939.7	126.6
1940.04	129.96
1940.38	128.64
1940.71	127.76
1941.05	126.8
1941.38	127.72
1941.72	128.12
1942.05	130.36
1942.39	130.12
1942.73	129.04
1943.06	129.72
1943.4	129.84
1943.73	126.96
1944.07	128.08
1944.4	128.2
1944.74	126.24
1945.07	127.16
1945.41	128.84
1945.74	129.28
1946.08	130.28
1946.42	134.08
1946.75	133.24
1947.09	132.36
1947.42	132.8
1947.76	133.52
1948.09	131.28
1948.43	130.72
1948.76	133.16
1949.1	131.24
1949.43	131.36
1949.77	131.2
1950.1	132.76
1950.44	128.76
1950.77	130.16
1951.11	130.2
1951.44	128.84
1951.78	126.28
1952.11	128.72
1952.45	128.56
1952.78	126.04
1953.12	128.4
1953.45	130.48
1953.79	129.08
1954.12	129
1954.46	133
1954.79	130.6
1955.12	127.52
1955.46	127.48
1955.79	126.84
1956.13	122.52
1956.46	122.76
1956.8	123.12
1957.13	123
1957.47	122.84
1957.8	124.04
1958.14	122.88
1958.47	121.72
1958.8	120.64
1959.14	120.36
1959.47	118.88
1959.81	118.44
1960.14	120.32
1960.48	120.04
1960.81	117.64
1961.14	116.6
1961.48	117.8
1961.81	115.96
1962.15	112.24
1962.48	113.16
1962.82	113.76
1963.15	111.28
1963.48	110.4
1963.82	113.04
1964.15	110.44
1964.49	106.32
1964.82	105.64
1965.15	105.08
1965.49	103.92
1965.82	102.8
1966.16	105.2
1966.49	105.64
1966.82	102.52
1967.16	101.16
1967.49	100.36
1967.83	98.8
1968.16	95.76
1968.49	96.6
1968.83	95.2
1969.16	94.84
1969.49	92.84
1969.83	92.48
1970.16	90.68
1970.49	88.92
1970.83	87.84
1971.16	87.84
1971.5	88
1971.83	87.44
1972.16	86.24
1972.5	85.52
1972.83	82.76
1973.16	79.88
1973.5	78.68
1973.83	78.36
1974.16	77.16
1974.5	76.32
1974.83	75.52
1975.16	73.4
1975.5	71.2
1975.83	69.48
1976.16	68.8
1976.49	67.64
1976.83	67.08
1977.16	67.28
1977.49	65.72
1977.83	63.96
1978.16	61.36
1978.49	61.64
1978.83	61.52
1979.16	59.76
1979.49	58.76
1979.83	58.48
1980.16	55.84
1980.49	53.04
1980.82	51.32
1981.16	50.16
1981.49	48.36
1981.82	46.8
1982.15	44.52
1982.49	43.28
1982.82	42.12
1983.15	42.56
1983.49	40.92
1983.82	40.84
1984.15	40.48
1984.48	39.92
1984.82	38.36
1985.15	37.16
1985.48	36.68
1985.81	34.64
1986.15	30.52
1986.48	29.04
1986.81	27.6
1987.14	25.84
1987.48	25.92
1987.81	27.48
1988.14	25.36
1988.47	24.2
1988.81	23.64
1989.14	22
1989.47	19.24
1989.8	19.4
1990.13	19.16
1990.47	17.64
1990.8	16.12
1991.13	17.72
1991.46	16.68
1991.79	15.08
1992.13	13.08
1992.46	13.8
1992.79	11.04
1993.12	9.44
1993.45	9.12
1993.79	9.24
1994.12	8.28
1994.45	8.04
1994.78	7.76
1995.11	7.88
1995.45	6.72
1995.78	5.56
1996.11	5.12
1996.44	4.84
1996.77	4.08
1997.1	4.12
1997.44	5.36
1997.77	5.2
1998.1	5.48
1998.43	5.2
1998.76	5.32
1999.09	5.16
1999.43	4.32
1999.76	3.96
2000.09	3.92
2000.42	3.8
2000.75	1.48
2001.08	1.96
2001.41	1.88
2001.75	1.84
2002.08	1.4
2002.41	2.48
2002.74	2.68
2003.07	2.32
2003.4	2.8
2003.73	3
2004.06	3.32
2004.4	3.96
2004.73	4.24
2005.06	3.24
2005.39	3.52
2005.72	2.72
2006.05	1.96
2006.38	1.44
2006.71	1.64
2007.04	1.48
2007.37	1.6
2007.71	1.24
2008.04	1.2
2008.37	2.64
2008.7	2.48
2009.03	2.76
2009.36	3.04
2009.69	3.12
2010.02	1.96
2010.35	2.36
2010.68	2.24
2011.01	2.4
2011.34	2.76
2011.67	3.32
2012.01	3.08
2012.34	3.96
2012.67	4.6
2013	5.6
2013.33	4.56
2013.66	4.84
2013.99	5.4
2014.32	5.56
2014.65	5.12
2014.98	6.44
2015.31	6.4
2015.64	5.6
2015.97	5.8
2016.3	5.88
2016.63	6.56
2016.96	7.32
2017.29	7.52
2017.62	7.52
2017.95	7.68
2018.28	7.4
2018.61	7.92
2018.94	8.64
2019.27	9.32
2019.6	9.32
2019.93	9.28
2020.26	8.68
2020.59	8.32
2020.92	8.32
2021.25	10.28
2021.58	10.88
2021.91	11.6
2022.24	12.8
2022.57	12.64
2022.9	11
2023.23	10.64
2023.56	9.6
2023.89	9.16
2024.22	8.72
2024.55	9.12
2024.88	8.92
2025.21	10.6
2025.54	9.2
2025.87	10.32
2026.2	9.72
2026.53	10.36
2026.86	9.24
2027.19	11.2
2027.52	10.84
2027.85	12.04
2028.18	13
2028.51	13.56
2028.84	12.48
2029.16	13.04
2029.49	13.12
2029.82	12.56
2030.15	11.76
2030.48	11.32
2030.81	11.16
2031.14	11.16
2031.47	10.64
2031.8	11.56
2032.13	13.68
2032.46	13.04
2032.79	13.04
2033.12	13.36
2033.44	12.84
2033.77	11.88
2034.1	11.24
2034.43	11
2034.76	10.8
2035.09	11.88
2035.42	11.12
2035.75	11.36
2036.08	10.56
2036.41	10.48
2036.73	9.24
2037.06	10.04
2037.39	11.36
2037.72	11.44
2038.05	11.76
2038.38	11.88
2038.71	10.56
2039.04	9.12
2039.36	9.8
2039.69	9.12
2040.02	8.32
2040.35	8.52
2040.68	8.04
2041.01	8
2041.34	7.96
2041.66	8.04
2041.99	8.28
2042.32	8.32
2042.65	6.72
2042.98	6.2
2043.31	6.4
2043.63	5.92
2043.96	6
2044.29	6.56
2044.62	6.52
2044.95	6
2045.28	6.32
2045.6	5.68
2045.93	4.72
2046.26	4.24
2046.59	4.64
2046.92	4
2047.24	4.8
2047.57	4.76
2047.9	4.8
2048.23	3.72
2048.56	3.56
2048.88	3.96
2049.21	4.6
2049.54	4.04
2049.87	5.12
2050.2	4.92
2050.52	4
2050.85	5
2051.18	5.4
2051.51	5.84
2051.83	6.48
2052.16	6.44
2052.49	5
2052.82	4.72
2053.15	3.12
2053.47	2.64
2053.8	2.48
2054.13	2.76
2054.46	2.44
2054.78	2.64
2055.11	2.68
2055.44	2.08
2055.77	1.68
2056.09	1.92
2056.42	2.28
2056.75	2.08
2057.08	2.44
2057.4	2.6
2057.73	2.64
2058.06	2.24
2058.38	2.28
2058.71	2.24
2059.04	1.88
2059.37	1.52
2059.69	2.32
2060.02	2.24
2060.35	1.84
2060.67	2.08
2061	2.24
2061.33	1.2
2061.66	1
2061.98	1.28
2062.31	1.08
2062.64	1.08
2062.96	1.24
2063.29	1.24
2063.62	1.08
2063.94	1.44
2064.27	1.2
2064.6	0.44
2064.92	0.6
2065.25	0.48
2065.58	0.08
2065.91	0.2
2066.23	1
2066.56	0.88
2066.89	1
2067.21	0.72
2067.54	0.88
2067.87	0.72
2068.19	0.56
2068.52	0.64
2068.84	0.88
2069.17	0.96
2069.5	1.12
2069.82	0.84
2070.15	0.96
2070.48	0.8
2070.8	0.6
2071.13	0.4
2071.46	0.68
2071.78	0.4
2072.11	0.64
2072.43	0.6
2072.76	0.76
2073.09	0.8
2073.41	0.72
2073.74	0.68
2074.07	0.56
2074.39	0.4
2074.72	0.28
2075.04	0.48
2075.37	0.28
2075.7	0.44
2076.02	0.56
2076.35	0.56
2076.67	0.36
2077	0.64
2077.33	1.04
2077.65	1.72
2077.98	1.92
2078.3	1.92
2078.63	1.56
2078.95	1.6
2079.28	0.8
2079.61	0.12
2079.93	0.24
2080.26	0.44
2080.58	-0.04
2080.91	3.13639e-17
2081.23	1.08
2081.56	1.16
2081.89	1.04
2082.21	1.24
2082.54	1.36
2082.86	0.76
2083.19	0.56
2083.51	1
2083.84	0.72
2084.16	0.68
2084.49	0.84
2084.81	1.16
2085.14	0.64
2085.46	0.96
2085.79	1.04
2086.12	0.88
2086.44	0.64
2086.77	0.8
2087.09	0.44
2087.42	0.44
2087.74	0.84
2088.07	1.28
2088.39	1.2
2088.72	1.72
2089.04	1.64
2089.37	1.44
2089.69	1.16
2090.02	1.36
2090.34	0.44
2090.67	0.68
2090.99	-1.52
2091.32	-1.56
2091.64	-1.56
2091.97	-0.96
2092.29	-1.2
2092.62	0.8
2092.94	0.64
2093.26	0.92
2093.59	0.72
2093.91	-0.56
2094.24	-0.28
2094.56	0.4
2094.89	0.28
2095.21	0.28
2095.54	1.68
2095.86	1.52
2096.19	1.12
2096.51	0.68
2096.84	0.8
2097.16	1.08
2097.48	1.04
2097.81	1.08
2098.13	1.08
2098.46	0.56
2098.78	0.16
2099.11	0.12
2099.43	-0.16
2099.75	0.2
2100.08	0.64
2100.4	0.56
2100.73	0.52
2101.05	0.56
2101.38	0.4
2101.7	0.48
2102.02	0.64
2102.35	0.92
2102.67	0.96
2103	0.76
2103.32	0.8
2103.64	0.6
2103.97	0.4
2104.29	0.68
2104.62	0.68
2104.94	0.52
2105.26	-0.04
2105.59	0.32
2105.91	-0.12
2106.23	-0.12
2106.56	-0.12
2106.88	0.6
2107.21	0.16
2107.53	0.16
2107.85	0.24
2108.18	0.24
2108.5	0.2
2108.82	0.36
2109.15	0.36
2109.47	0.28
2109.79	0.4
2110.12	0.28
2110.44	0.36
2110.76	0.36
2111.09	0.48
2111.41	0.44
2111.73	0.44
2112.06	0.24
2112.38	0.48
2112.7	-0.2
2113.03	-0.28
2113.35	-0.2
2113.67	-0.2
2114	-0.44
2114.32	0.12
2114.64	0.4
2114.97	0.32
2115.29	0.32
2115.61	0.56
2115.94	0.56
2116.26	0.28
2116.58	0.4
2116.91	-0.56
2117.23	-0.56
2117.55	-0.56
2117.87	-0.08
2118.2	-0.16
2118.52	0.96
2118.84	0.92
2119.17	0.96
2119.49	0.52
2119.81	0.48
2120.13	0.28
2120.46	0.16
2120.78	-0.8
2121.1	-0.76
2121.42	-0.64
2121.75	-0.36
2122.07	-0.36
2122.39	0.76
2122.72	0.68
2123.04	0.64
2123.36	0.36
2123.68	0.4
2124.01	0.2
2124.33	0.2
2124.65	0.2
2124.97	0.24
2125.29	0.12
2125.62	0.4
2125.94	0.4
2126.26	0.32
2126.58	0.28
2126.91	-0.6
2127.23	-0.88
2127.55	-0.88
2127.87	-0.88
2128.2	-0.84
2128.52	0.12
2128.84	0.12
2129.16	0.12
2129.48	0.12
2129.81	0.08
2130.13	0
2130.45	0.12
2130.77	0.4
2131.09	0.72
2131.42	0.72
2131.74	0.72
2132.06	0.6
2132.38	0.36
2132.7	0.04
2133.02	0.04
2133.35	0.04
2133.67	0.04
2133.99	0
2134.31	-0.56
2134.63	-0.32
2134.96	-0.32
2135.28	-0.32
2135.6	-0.32
2135.92	0.24
2136.24	0.24
2136.56	0.24
2136.88	0.36
2137.21	0.36
2137.53	0.36
2137.85	0.2
2138.17	-0.36
2138.49	-0.24
2138.81	-0.24
2139.13	-0.2
2139.46	-0.28
2139.78	0.28
2140.1	0.04
2140.42	0.16
2140.74	0.2
2141.06	0.24
2141.38	0.36
2141.7	0.52
2142.03	0.72
2142.35	0.64
2142.67	0.6
2142.99	0.48
2143.31	0.32
2143.63	0
2143.95	0
2144.27	0
2144.59	0.08
2144.91	0.04
2145.24	0.24
2145.56	0.24
2145.88	0.48
2146.2	0.52
2146.52	0.64
2146.84	0.44
2147.16	0.44
2147.48	0.2
2147.8	0.08
2148.12	0.08
2148.44	0.08
2148.76	0.24
2149.08	0.24
2149.41	0.24
2149.73	0.36
2150.05	0.44
2150.37	0.6
2150.69	0.6
2151.01	0.6
2151.33	0.4
2151.65	0.44
2151.97	0.4
2152.29	0.4
2152.61	-5.55112e-17
2152.93	0.08
2153.25	-3.8025e-17
2153.57	-0.28
2153.89	-0.28
2154.21	-0.04
2154.53	-0.12
2154.85	-0.16
2155.17	-0.12
2155.49	-0.28
2155.81	-0.12
2156.13	-0.12
2156.45	-0.12
2156.77	-0.16
2157.09	0.04
2157.41	0.04
2157.73	0.12
2158.05	0.12
2158.37	0.28
2158.69	0.24
2159.01	0.24
2159.33	0.16
2159.65	0.44
2159.97	0.28
2160.29	0.32
2160.61	0.44
2160.93	0.44
2161.25	0.16
2161.57	0.16
2161.89	0.12
2162.21	0
2162.53	0
2162.85	-0.32
2163.17	-0.04
2163.49	0.24
2163.81	0.36
2164.13	0.36
2164.45	0.08
2164.77	-0.2
2165.08	-0.4
2165.4	-0.4
2165.72	-0.4
2166.04	0.2
2166.36	0.44
2166.68	0.36
2167	0.24
2167.32	0.28
2167.64	0.28
2167.96	0.04
2168.28	0.08
2168.6	0.12
2168.92	0.08
2169.24	0.44
2169.55	0.52
2169.87	0.6
2170.19	0.6
2170.51	0.72
2170.83	0.96
2171.15	0.96
2171.47	1.16
2171.79	1.12
2172.11	1.16
2172.43	0.76
2172.74	0.68
2173.06	0.36
2173.38	0.36
2173.7	0.2
2174.02	0.08
2174.34	0.12
2174.66	0.12
2174.98	0.12
2175.29	0.24
2175.61	0.4
2175.93	0.36
2176.25	0.72
2176.57	0.72
2176.89	0.68
2177.21	0.64
2177.52	0.64
2177.84	0.28
2178.16	0.4
2178.48	0.32
2178.8	0.12
2179.12	0.12
2179.43	0.12
2179.75	-1
2180.07	-0.92
2180.39	-0.92
2180.71	-0.88
2181.03	-0.88
2181.34	0.16
2181.66	0.44
2181.98	0.44
2182.3	0.4
2182.62	0.4
2182.93	0.16
2183.25	0.08
2183.57	0.08
2183.89	0.12
2184.21	0.12
2184.52	0.32
2184.84	0.04
2185.16	0.12
2185.48	0.08
2185.8	0.08
2186.11	0.32
2186.43	0.32
2186.75	0.24
2187.07	-0.16
2187.39	-0.96
2187.7	-1.2
2188.02	-1.8
2188.34	-1.4
2188.66	-0.96
2188.97	-0.16
2189.29	-0.16
2189.61	0.48
2189.93	0.36
2190.24	0.32
2190.56	0.32
2190.88	0.32
2191.2	0.28
2191.51	0
2191.83	0
2192.15	0
2192.47	0.04
2192.78	0.48
2193.1	0.52
2193.42	0.52
2193.74	0.52
2194.05	0.48
2194.37	0.04
2194.69	0
2195	-0.4
2195.32	-0.4
2195.64	-0.4
2195.96	-0.4
2196.27	-0.28
2196.59	-0.48
2196.91	-0.48
2197.22	-0.48
2197.54	-0.28
2197.86	-0.36
2198.18	0.44
2198.49	0.44
2198.81	0.48
2199.13	0.4
2199.44	0.84
2199.76	0.64
2200.08	0.64
2200.39	0.64
2200.71	0.56
2201.03	0.12
2201.34	0.24
2201.66	0.24
2201.98	0.2
2202.29	0.2
2202.61	0.2
2202.93	0.08
2203.24	0.16
2203.56	0.16
2203.88	0.12
2204.19	0.12
2204.51	0.12
2204.83	0.04
2205.14	0.04
2205.46	0.16
2205.78	0.12
2206.09	0.12
2206.41	0.04
2206.72	-0.08
2207.04	-0.2
2207.36	-0.6
2207.67	-0.6
2207.99	-0.52
2208.31	-0.4
2208.62	-0.4
2208.94	0.28
2209.25	0.28
2209.57	0.28
2209.89	0.28
2210.2	0.28
2210.52	0
2210.83	0
2211.15	0
2211.47	0
2211.78	0
2212.1	-0.28
2212.41	-0.2
2212.73	-0.2
2213.05	-0.16
2213.36	0.08
2213.68	0.36
2213.99	0.28
2214.31	0.28
2214.62	0.24
2214.94	0
2215.26	0
2215.57	0
2215.89	0
2216.2	0
2216.52	0
2216.83	0
2217.15	0.04
2217.46	0.04
2217.78	0.12
2218.1	-0.08
2218.41	-0.08
2218.73	-0.12
2219.04	-0.12
2219.36	0.08
2219.67	0.28
2219.99	0.28
2220.3	0.28
2220.62	0.28
2220.93	0.08
2221.25	0.08
2221.56	0.08
2221.88	0.08
2222.19	0.16
2222.51	0.2
2222.82	-1.2
2223.14	-1.16
2223.45	-1.16
2223.77	-1.24
2224.08	-1.36
2224.4	0.04
2224.71	0.04
2225.03	0.04
2225.34	0.12
2225.66	-1.28
2225.97	-1.24
2226.29	-1.28
2226.6	-1.12
2226.92	-1.2
2227.23	0.2
2227.55	0.28
2227.86	0.32
2228.18	0.16
2228.49	0.16
2228.81	0.16
2229.12	0.16
2229.44	0.12
2229.75	0.12
2230.07	0.16
2230.38	0.2
2230.69	0.12
2231.01	0.12
2231.32	0.12
2231.64	0.08
2231.95	0.04
2232.27	0
2232.58	0
2232.9	0.08
2233.21	0.08
2233.52	0.16
2233.84	0.16
2234.15	0.16
2234.47	0.08
2234.78	0.08
2235.1	0
2235.41	0.12
2235.72	0.12
2236.04	0.32
2236.35	0.32
2236.67	-0.28
2236.98	-0.16
2237.29	0.2
2237.61	-6.88468e-17
2237.92	-6.88468e-17
2238.24	0.6
2238.55	0.36
2238.86	0
2239.18	0.08
2239.49	-0.68
2239.8	-0.68
2240.12	-0.68
2240.43	-0.6
2240.75	-0.68
2241.06	0.08
2241.37	0.24
2241.69	0.24
2242	0.16
2242.31	0.16
2242.63	0.16
2242.94	0.4
2243.26	-0.16
2243.57	-0.04
2243.88	-0.04
2244.2	-0.04
2244.51	-0.44
2244.82	0.12
2245.14	0
2245.45	0
2245.76	0.04
2246.08	0.04
2246.39	0.04
2246.7	0.08
2247.02	0.28
2247.33	0.28
2247.64	0.32
2247.96	0.32
2248.27	0.36
2248.58	-0.84
2248.9	-0.88
2249.21	-0.92
2249.52	-0.92
2249.83	-1
2250.15	0
2250.46	0
2250.77	0
2251.09	0
2251.4	0
2251.71	0
2252.03	0.08
2252.34	0.08
2252.65	0.08
2252.96	0.08
2253.28	0.08
2253.59	0
2253.9	0
2254.21	0
2254.53	0
2254.84	-0.4
2255.15	-0.4
2255.47	-0.4
2255.78	-0.4
2256.09	-0.4
2256.4	0.04
2256.72	0.12
2257.03	0.12
2257.34	0.28
2257.65	0.48
2257.97	0.52
2258.28	0.44
2258.59	0.6
2258.9	0.44
2259.22	0.24
2259.53	0.16
2259.84	0.28
2260.15	0.12
2260.46	0.12
2260.78	0.2
2261.09	0.28
2261.4	0.16
2261.71	0.16
2262.03	0.16
2262.34	0.24
2262.65	0.32
2262.96	0.32
2263.27	0.4
2263.59	0.56
2263.9	0.52
2264.21	0.36
2264.52	0.36
2264.83	0.28
2265.15	0.16
2265.46	0.04
2265.77	0.04
2266.08	0.16
2266.39	0.24
2266.7	0.2
2267.02	0.24
2267.33	-0.16
2267.64	-0.28
2267.95	-0.36
2268.26	-0.32
2268.57	-0.36
2268.89	0.04
2269.2	0.04
2269.51	0.08
2269.82	0.04
2270.13	0.08
2270.44	0.08
2270.76	-0.32
2271.07	-0.36
2271.38	-0.92
2271.69	-0.96
2272	-0.96
2272.31	-0.72
2272.62	-1.52
2272.93	-0.96
2273.25	-0.96
2273.56	-0.96
2273.87	-0.8
2274.18	0
2274.49	0.16
2274.8	0.2
2275.11	0.24
2275.42	0.24
2275.74	0.24
2276.05	0.08
2276.36	0.04
2276.67	0.24
2276.98	0.24
2277.29	0.24
2277.6	0.24
2277.91	0.24
2278.22	-0.32
2278.53	-0.32
2278.85	-0.16
2279.16	-1.16
2279.47	-1.16
2279.78	-0.72
2280.09	-0.72
2280.4	-0.72
2280.71	0.44
2281.02	0.44
2281.33	0.32
2281.64	0.4
2281.95	0.24
2282.26	0.08
2282.57	0.08
2282.88	0.08
2283.19	0.08
2283.5	0.08
2283.82	0.08
2284.13	0.2
2284.44	0.2
2284.75	-0.44
2285.06	-0.44
2285.37	-0.44
2285.68	-0.56
2285.99	-0.56
2286.3	0.04
2286.61	0.16
2286.92	0.16
2287.23	0.16
2287.54	0.16
2287.85	0.12
2288.16	0
2288.47	0.04
2288.78	0.04
2289.09	0.12
2289.4	0.2
2289.71	0.2
2290.02	0.24
2290.33	0.28
2290.64	0.2
2290.95	-0.08
2291.26	-0.08
2291.57	0.04
2291.88	-0.24
2292.19	-0.24
2292.5	-0.04
2292.81	-0.04
2293.12	-0.24
2293.43	0
2293.74	0
2294.05	0
2294.36	0
2294.67	0
2294.98	0
2295.29	0
2295.6	0
2295.91	0
2296.21	0
2296.52	0
2296.83	0
2297.14	0
2297.45	0
2297.76	0
2298.07	0
2298.38	0
2298.69	0
2299	0
2299.31	0
2299.62	0
2299.93	0
2300.24	0
2300.55	0
2300.85	0
2301.16	0
2301.47	0
2301.78	0
2302.09	0
2302.4	0
2302.71	0
2303.02	0
2303.33	0
2303.64	0
2303.94	0
2304.25	0
2304.56	0
2304.87	0
2305.18	0
2305.49	0
2305.8	0
2306.11	0
2306.42	0
2306.72	0
2307.03	0
2307.34	0
2307.65	0
2307.96	0
2308.27	0
2308.58	0
2308.88	0
2309.19	0
2309.5	0
2309.81	0
2310.12	0
2310.43	0
2310.74	0
2311.04	0
2311.35	0
2311.66	0
2311.97	0
2312.28	0
2312.59	0
2312.89	0
2313.2	0
2313.51	0
2313.82	0
2314.13	0
2314.43	0
2314.74	0
2315.05	0
2315.36	0
2315.67	0
2315.97	0
2316.28	0
2316.59	0
2316.9	0
2317.21	0
2317.51	0
2317.82	0
2318.13	0
2318.44	0
2318.75	0
2319.05	0
2319.36	0
2319.67	0
2319.98	0
2320.28	0
2320.59	0
2320.9	0
2321.21	0
2321.51	0
2321.82	0
2322.13	0
2322.44	0
2322.74	0
2323.05	0
2323.36	0
2323.67	0
2323.97	0
2324.28	0
2324.59	0
2324.9	0
2325.2	0
2325.51	0
2325.82	0
2326.13	0
2326.43	0
2326.74	0
2327.05	0
2327.35	0
2327.66	0
2327.97	0
2328.27	0
2328.58	0
2328.89	0
2329.2	0
2329.5	0
2329.81	0
2330.12	0
2330.42	0
2330.73	0
2331.04	0
2331.34	0
2331.65	0
2331.96	0
2332.26	0
2332.57	0
2332.88	0
2333.18	0
2333.49	0
2333.8	0
2334.1	0
2334.41	0
2334.72	0
2335.02	0
2335.33	0
2335.64	0
2335.94	0
2336.25	0
2336.56	0
2336.86	0
2337.17	0
2337.48	0
2337.78	0
2338.09	0
2338.39	0
2338.7	0
2339.01	0
2339.31	0
2339.62	0
2339.93	0
2340.23	0
2340.54	0
2340.84	0
2341.15	0
2341.46	0
2341.76	0
2342.07	0
2342.37	0
2342.68	0
2342.99	0
2343.29	0
2343.6	0
2343.9	0
2344.21	0
2344.51	0
2344.82	0
2345.13	0
2345.43	0
2345.74	0
2346.04	0
2346.35	0
2346.65	0
2346.96	0
2347.27	0
2347.57	0
2347.88	0
2348.18	0
2348.49	0
2348.79	0
2349.1	0
2349.4	0
2349.71	0
2350.01	0
2350.32	0
2350.63	0
2350.93	0
2351.24	0
2351.54	0
2351.85	0
2352.15	0
2352.46	0
2352.76	0
2353.07	0
2353.37	0
2353.68	0
2353.98	0
2354.29	0
2354.59	0
2354.9	0
2355.2	0
2355.51	0
2355.81	0
2356.12	0
2356.42	0
2356.73	0
2357.03	0
2357.34	0
2357.64	0
2357.95	0
2358.25	0
2358.55	0
2358.86	0
2359.16	0
2359.47	0
2359.77	0
2360.08	0
2360.38	0
2360.69	0
2360.99	0
2361.3	0
2361.6	0
2361.9	0
2362.21	0
2362.51	0
2362.82	0
2363.12	0
2363.43	0
2363.73	0
2364.04	0
2364.34	0
2364.64	0
2364.95	0
2365.25	0
2365.56	0
2365.86	0
2366.16	0
2366.47	0
2366.77	0
2367.08	0
2367.38	0
2367.68	0
2367.99	0
2368.29	0
2368.6	0
2368.9	0
2369.2	0
2369.51	0
2369.81	0
2370.12	0
2370.42	0
2370.72	0
2371.03	0
2371.33	0
2371.63	0
2371.94	0
2372.24	0
2372.55	0
2372.85	0
2373.15	0
2373.46	0
2373.76	0
2374.06	0
2374.37	0
2374.67	0
2374.97	0
2375.28	0
2375.58	0
2375.88	0
2376.19	0
2376.49	0
2376.79	0
2377.1	0
2377.4	0
2377.7	0
2378.01	0
2378.31	0
2378.61	0
2378.92	0
2379.22	0
2379.52	0
2379.82	0
2380.13	0
2380.43	0
2380.73	0
2381.04	0
2381.34	0
2381.64	0
2381.95	0
2382.25	0
2382.55	0
2382.85	0
2383.16	0
2383.46	0
2383.76	0
2384.06	0
2384.37	0
2384.67	0
2384.97	0
2385.28	0
2385.58	0
2385.88	0
2386.18	0
2386.49	0
2386.79	0
2387.09	0
2387.39	0
2387.69	0
2388	0
2388.3	0
2388.6	0
2388.9	0
2389.21	0
2389.51	0
2389.81	0
2390.11	0
2390.42	0
2390.72	0
2391.02	0
2391.32	0
2391.62	0
2391.93	0
2392.23	0
2392.53	0
2392.83	0
2393.13	0
2393.44	0
2393.74	0
2394.04	0
2394.34	0
2394.64	0
2394.95	0
2395.25	0
2395.55	0
2395.85	0
2396.15	0
2396.45	0
2396.76	0
2397.06	0
2397.36	0
2397.66	0
2397.96	0
2398.26	0
2398.57	0
2398.87	0
2399.17	0
2399.47	0
2399.77	0
2400.07	0
2400.37	0
2400.68	0
2400.98	0
2401.28	0
2401.58	0
2401.88	0
2402.18	0
2402.48	0
2402.79	0
2403.09	0
2403.39	0
2403.69	0
2403.99	0
2404.29	0
2404.59	0
2404.89	0
2405.19	0
2405.5	0
2405.8	0
2406.1	0
2406.4	0
2406.7	0
2407	0
2407.3	0
2407.6	0
2407.9	0
2408.2	0
2408.5	0
2408.8	0
2409.11	0
2409.41	0
2409.71	0
2410.01	0
2410.31	0
2410.61	0
2410.91	0
2411.21	0
2411.51	0
2411.81	0
2412.11	0
2412.41	0
2412.71	0
2413.01	0
2413.31	0
2413.61	0
2413.91	0
2414.21	0
2414.51	0
2414.81	0
2415.12	0
2415.42	0
2415.72	0
2416.02	0
2416.32	0
2416.62	0
2416.92	0
2417.22	0
2417.52	0
2417.82	0
2418.12	0
2418.42	0
2418.72	0
2419.02	0
2419.32	0
2419.62	0
2419.92	0
2420.22	0
2420.52	0
2420.82	0
2421.12	0
2421.42	0
2421.71	0
2422.01	0
2422.31	0
2422.61	0
2422.91	0
2423.21	0
2423.51	0
2423.81	0
2424.11	0
2424.41	0
2424.71	0
2425.01	0
2425.31	0
2425.61	0
2425.91	0
2426.21	0
2426.51	0
2426.81	0
2427.11	0
2427.41	0
2427.7	0
2428	0
2428.3	0
2428.6	0
2428.9	0
2429.2	0
2429.5	0
2429.8	0
2430.1	0
2430.4	0
2430.7	0
2430.99	0
2431.29	0
2431.59	0
2431.89	0
2432.19	0
2432.49	0
2432.79	0
2433.09	0
2433.39	0
2433.68	0
2433.98	0
2434.28	0
2434.58	0
2434.88	0
2435.18	0
2435.48	0
2435.78	0
2436.07	0
2436.37	0
2436.67	0
2436.97	0
2437.27	0
2437.57	0
2437.86	0
2438.16	0
2438.46	0
2438.76	0
2439.06	0
2439.36	0
2439.66	0
2439.95	0
2440.25	0
2440.55	0
2440.85	0
2441.15	0
2441.44	0
2441.74	0
2442.04	0
2442.34	0
2442.64	0
2442.93	0
2443.23	0
2443.53	0
2443.83	0
2444.13	0
2444.42	0
2444.72	0
2445.02	0
2445.32	0
2445.62	0
2445.91	0
2446.21	0
2446.51	0
2446.81	0
2447.1	0
2447.4	0
2447.7	0
2448	0
2448.3	0
2448.59	0
2448.89	0
2449.19	0
2449.49	0
2449.78	0
2450.08	0
2450.38	0
2450.68	0
2450.97	0
2451.27	0
2451.57	0
2451.87	0
2452.16	0
2452.46	0
2452.76	0
2453.05	0
2453.35	0
2453.65	0
2453.95	0
2454.24	0
2454.54	0
2454.84	0
2455.13	0
2455.43	0
2455.73	0
2456.03	0
2456.32	0
2456.62	0
2456.92	0
2457.21	0
2457.51	0
2457.81	0
2458.1	0
2458.4	0
2458.7	0
2458.99	0
2459.29	0
2459.59	0
2459.88	0
2460.18	0
2460.48	0
2460.77	0
2461.07	0
2461.37	0
2461.66	0
2461.96	0
2462.26	0
2462.55	0
2462.85	0
2463.15	0
2463.44	0
2463.74	0
2464.04	0
2464.33	0
2464.63	0
2464.92	0
2465.22	0
2465.52	0
2465.81	0
2466.11	0
2466.41	0
2466.7	0
2467	0
2467.29	0
2467.59	0
2467.89	0
2468.18	0
2468.48	0
2468.77	0
2469.07	0
2469.37	0
2469.66	0
2469.96	0
2470.25	0
2470.55	0
2470.84	0
2471.14	0
2471.44	0
2471.73	0
2472.03	0
2472.32	0
2472.62	0
2472.91	0
2473.21	0
2473.51	0
2473.8	0
2474.1	0
2474.39	0
2474.69	0
2474.98	0
2475.28	0
2475.57	0
2475.87	0
2476.17	0
2476.46	0
2476.76	0
2477.05	0
2477.35	0
2477.64	0
2477.94	0
2478.23	0
2478.53	0
2478.82	0
2479.12	0
2479.41	0
2479.71	0
2480	0
2480.3	0
2480.59	0
2480.89	0
2481.18	0
2481.48	0
2481.77	0
2482.07	0
2482.36	0
2482.66	0
2482.95	0
2483.25	0
2483.54	0
2483.84	0
2484.13	0
2484.43	0
2484.72	0
2485.02	0
2485.31	0
2485.6	0
2485.9	0
2486.19	0
2486.49	0
2486.78	0
2487.08	0
2487.37	0
2487.67	0
2487.96	0
2488.26	0
2488.55	0
2488.84	0
2489.14	0
2489.43	0
2489.73	0
2490.02	0
2490.32	0
2490.61	0
2490.9	0
2491.2	0
2491.49	0
2491.79	0
2492.08	0
2492.37	0
2492.67	0
2492.96	0
2493.26	0
2493.55	0
2493.84	0
2494.14	0
2494.43	0
2494.73	0
2495.02	0
2495.31	0
2495.61	0
2495.9	0
2496.2	0
2496.49	0
2496.78	0
2497.08	0
2497.37	0
2497.66	0
2497.96	0
2498.25	0
2498.54	0
2498.84	0
2499.13	0
2499.43	0
2499.72	0
2500.01	0
2500.31	0
2500.6	0
2500.89	0
2501.19	0
2501.48	0
2501.77	0
2502.07	0
2502.36	0
2502.65	0
2502.95	0
2503.24	0
2503.53	0
2503.82	0
2504.12	0
2504.41	0
2504.7	0
2505	0
2505.29	0
2505.58	0
2505.88	0
2506.17	0
2506.46	0
2506.76	0
2507.05	0
2507.34	0
2507.63	0
2507.93	0
2508.22	0
2508.51	0
2508.8	0
2509.1	0
2509.39	0
2509.68	0
2509.98	0
2510.27	0
2510.56	0
2510.85	0
2511.15	0
2511.44	0
2511.73	0
2512.02	0
2512.32	0
2512.61	0
2512.9	0
2513.19	0
2513.49	0
2513.78	0
2514.07	0
2514.36	0
2514.65	0
2514.95	0
2515.24	0
2515.53	0
2515.82	0
2516.12	0
2516.41	0
2516.7	0
2516.99	0
2517.28	0
2517.58	0
2517.87	0
2518.16	0
2518.45	0
2518.74	0
2519.04	0
2519.33	0
2519.62	0
2519.91	0
2520.2	0
2520.5	0
2520.79	0
2521.08	0
2521.37	0
2521.66	0
2521.95	0
2522.25	0
2522.54	0
2522.83	0
2523.12	0
2523.41	0
2523.7	0
2523.99	0
2524.29	0
2524.58	0
2524.87	0
2525.16	0
2525.45	0
2525.74	0
2526.03	0
2526.33	0
2526.62	0
2526.91	0
2527.2	0
2527.49	0
2527.78	0
2528.07	0
2528.36	0
2528.66	0
2528.95	0
2529.24	0
2529.53	0
2529.82	0
2530.11	0
2530.4	0
2530.69	0
2530.98	0
2531.27	0
2531.57	0
2531.86	0
2532.15	0
2532.44	0
2532.73	0
2533.02	0
2533.31	0
2533.6	0
2533.89	0
2534.18	0
2534.47	0
2534.76	0
2535.05	0
2535.35	0
2535.64	0
2535.93	0
2536.22	0
2536.51	0
2536.8	0
2537.09	0
2537.38	0
2537.67	0
2537.96	0
2538.25	0
2538.54	0
2538.83	0
2539.12	0
2539.41	0
2539.7	0
2539.99	0
2540.28	0
2540.57	0
2540.86	0
2541.15	0
2541.44	0
2541.73	0
2542.02	0
2542.31	0
2542.6	0
2542.89	0
2543.18	0
2543.47	0
2543.76	0
2544.05	0
2544.34	0
2544.63	0
2544.92	0
2545.21	0
2545.5	0
2545.79	0
2546.08	0
2546.37	0
2546.66	0
2546.95	0
2547.24	0
2547.53	0
2547.82	0
2548.11	0
2548.4	0
2548.69	0
2548.98	0
2549.27	0
2549.55	0
2549.84	0
2550.13	0
2550.42	0
2550.71	0
2551	0
2551.29	0
2551.58	0
2551.87	0
2552.16	0
2552.45	0
2552.74	0
2553.03	0
2553.31	0
2553.6	0
2553.89	0
2554.18	0
2554.47	0
2554.76	0
2555.05	0
2555.34	0
2555.63	0
2555.92	0
2556.2	0
2556.49	0
2556.78	0
2557.07	0
2557.36	0
2557.65	0
2557.94	0
2558.23	0
2558.51	0
2558.8	0
2559.09	0
2559.38	0
2559.67	0
2559.96	0
2560.25	0
2560.53	0
2560.82	0
2561.11	0
2561.4	0
2561.69	0
2561.98	0
2562.27	0
2562.55	0
2562.84	0
2563.13	0
2563.42	0
2563.71	0
2564	0
2564.28	0
2564.57	0
2564.86	0
2565.15	0
2565.44	0
2565.72	0
2566.01	0
2566.3	0
2566.59	0
2566.88	0
2567.16	0
2567.45	0
2567.74	0
2568.03	0
2568.32	0
2568.6	0
2568.89	0
2569.18	0
2569.47	0
2569.75	0

