Source: Spectrum Viewer

Chart: Pulse Spectrum

Series: 
Wavelength (nm)	S (a.u.)
1179.9	0
1180.29	0
1180.68	0
1181.06	0
1181.45	0
1181.83	0
1182.22	0
1182.6	0
1182.99	0
1183.38	0
1183.76	0
1184.15	0
1184.53	0
1184.92	0
1185.3	0
1185.69	0
1186.07	0
1186.46	0
1186.85	0
1187.23	0
1187.62	0
1188	0
1188.39	0
1188.77	0
1189.16	0
1189.54	0
1189.93	0
1190.31	0
1190.7	0
1191.08	0
1191.47	0
1191.85	0
1192.24	0
1192.62	0
1193.01	0
1193.39	0
1193.78	0
1194.16	0
1194.55	0
1194.93	0
1195.32	0
1195.7	0
1196.09	0
1196.47	0
1196.86	0
1197.24	0
1197.63	0
1198.01	0
1198.4	0
1198.78	0
1199.16	0
1199.55	0
1199.93	0
1200.32	0
1200.7	0
1201.09	0
1201.47	0
1201.86	0
1202.24	0
1202.63	0
1203.01	0
1203.39	0
1203.78	0
1204.16	0
1204.55	0
1204.93	0
1205.32	0
1205.7	0
1206.08	0
1206.47	0
1206.85	0
1207.24	0
1207.62	0
1208	0
1208.39	0
1208.77	0
1209.16	0
1209.54	0
1209.92	0
1210.31	0
1210.69	0
1211.08	0
1211.46	0
1211.84	0
1212.23	0
1212.61	0
1213	0
1213.38	0
1213.76	0
1214.15	0
1214.53	0
1214.91	0
1215.3	0
1215.68	0
1216.06	0
1216.45	0
1216.83	0
1217.22	0
1217.6	0
1217.98	0
1218.37	0
1218.75	0
1219.13	0
1219.52	0
1219.9	0
1220.28	0
1220.67	0
1221.05	0
1221.43	0
1221.82	0
1222.2	0
1222.58	0
1222.97	0
1223.35	0
1223.73	0
1224.11	0
1224.5	0
1224.88	0
1225.26	0
1225.65	0
1226.03	0
1226.41	0
1226.8	0
1227.18	0
1227.56	0
1227.94	0
1228.33	0
1228.71	0
1229.09	0
1229.47	0
1229.86	0
1230.24	0
1230.62	0
1231.01	0
1231.39	0
1231.77	0
1232.15	0
1232.54	0
1232.92	0
1233.3	0
1233.68	0
1234.07	0
1234.45	0
1234.83	0
1235.21	0
1235.6	0
1235.98	0
1236.36	0
1236.74	0
1237.12	0
1237.51	0
1237.89	0
1238.27	0
1238.65	0
1239.04	0
1239.42	0
1239.8	0
1240.18	0
1240.56	0
1240.95	0
1241.33	0
1241.71	0
1242.09	0
1242.47	0
1242.86	0
1243.24	0
1243.62	0
1244	0
1244.38	0
1244.77	0
1245.15	0
1245.53	0
1245.91	0
1246.29	0
1246.67	0
1247.06	0
1247.44	0
1247.82	0
1248.2	0
1248.58	0
1248.96	0
1249.34	0
1249.73	0
1250.11	0
1250.49	0
1250.87	0
1251.25	0
1251.63	0
1252.01	0
1252.4	0
1252.78	0
1253.16	0
1253.54	0
1253.92	0
1254.3	0
1254.68	0
1255.06	0
1255.45	0
1255.83	0
1256.21	0
1256.59	0
1256.97	0
1257.35	0
1257.73	0
1258.11	0
1258.49	0
1258.87	0
1259.26	0
1259.64	0
1260.02	0
1260.4	0
1260.78	0
1261.16	0
1261.54	0
1261.92	0
1262.3	0
1262.68	0
1263.06	0
1263.44	0
1263.82	0
1264.21	0
1264.59	0
1264.97	0
1265.35	0
1265.73	0
1266.11	0
1266.49	0
1266.87	0
1267.25	0
1267.63	0
1268.01	0
1268.39	0
1268.77	0
1269.15	0
1269.53	0
1269.91	0
1270.29	0
1270.67	0
1271.05	0
1271.43	0
1271.81	0
1272.19	0
1272.57	0
1272.95	0
1273.33	0
1273.71	0
1274.09	0
1274.47	0
1274.85	0
1275.23	0
1275.61	0
1275.99	0
1276.37	0
1276.75	0
1277.13	0
1277.51	0
1277.89	0
1278.27	0
1278.65	0
1279.03	0
1279.41	0
1279.79	0
1280.17	0
1280.55	0
1280.93	0
1281.31	0
1281.69	0
1282.07	0
1282.45	0
1282.82	0
1283.2	0
1283.58	0
1283.96	0
1284.34	0
1284.72	0
1285.1	0
1285.48	0
1285.86	0
1286.24	0
1286.62	0
1287	0
1287.38	0
1287.75	0
1288.13	0
1288.51	0
1288.89	0
1289.27	0
1289.65	0
1290.03	0
1290.41	0
1290.79	0
1291.17	0
1291.54	0
1291.92	0
1292.3	0
1292.68	0
1293.06	0
1293.44	0
1293.82	0
1294.2	0
1294.57	0
1294.95	0
1295.33	0
1295.71	0
1296.09	0
1296.47	0
1296.85	0
1297.22	0
1297.6	0
1297.98	0
1298.36	0
1298.74	0
1299.12	0
1299.5	0
1299.87	0
1300.25	0
1300.63	0
1301.01	0
1301.39	0
1301.77	0
1302.14	0
1302.52	0
1302.9	0
1303.28	0
1303.66	0
1304.03	0
1304.41	0
1304.79	0
1305.17	0
1305.55	0
1305.92	0
1306.3	0
1306.68	0
1307.06	0
1307.44	0
1307.81	0
1308.19	0
1308.57	0
1308.95	0
1309.32	0
1309.7	0
1310.08	0
1310.46	0
1310.84	0
1311.21	0
1311.59	0
1311.97	0
1312.35	0
1312.72	0
1313.1	0
1313.48	0
1313.86	0
1314.23	0
1314.61	0
1314.99	0
1315.37	0
1315.74	0
1316.12	0
1316.5	0
1316.87	0
1317.25	0
1317.63	0
1318.01	0
1318.38	0
1318.76	0
1319.14	0
1319.52	0
1319.89	0
1320.27	0
1320.65	0
1321.02	0
1321.4	0
1321.78	0
1322.15	0
1322.53	0
1322.91	0
1323.29	0
1323.66	0
1324.04	0
1324.42	0
1324.79	0
1325.17	0
1325.55	0
1325.92	0
1326.3	0
1326.68	0
1327.05	0
1327.43	0
1327.81	0
1328.18	0
1328.56	0
1328.94	0
1329.31	0
1329.69	0
1330.06	0
1330.44	0
1330.82	0
1331.19	0
1331.57	0
1331.95	0
1332.32	0
1332.7	0
1333.08	0
1333.45	0
1333.83	0
1334.2	0
1334.58	0
1334.96	0
1335.33	0
1335.71	0
1336.08	0
1336.46	0
1336.84	0
1337.21	0
1337.59	0
1337.96	0
1338.34	0
1338.72	0
1339.09	0
1339.47	0
1339.84	0
1340.22	0
1340.6	0
1340.97	0
1341.35	0
1341.72	0
1342.1	0
1342.47	0
1342.85	0
1343.23	0
1343.6	0
1343.98	0
1344.35	0
1344.73	0
1345.1	0
1345.48	0
1345.85	0
1346.23	0
1346.61	0
1346.98	0
1347.36	0
1347.73	0
1348.11	0
1348.48	0
1348.86	0
1349.23	0
1349.61	0
1349.98	0
1350.36	0
1350.73	0
1351.11	0
1351.48	0
1351.86	0
1352.23	0
1352.61	0
1352.98	0
1353.36	0
1353.73	0
1354.11	0
1354.48	0
1354.86	0
1355.23	0
1355.61	0
1355.98	0
1356.36	0
1356.73	0
1357.11	0
1357.48	0
1357.86	0
1358.23	0
1358.61	0
1358.98	0
1359.35	0
1359.73	0
1360.1	0
1360.48	0
1360.85	0
1361.23	0
1361.6	0
1361.98	0
1362.35	0
1362.72	0
1363.1	0
1363.47	0
1363.85	0
1364.22	0
1364.6	0
1364.97	0
1365.34	0
1365.72	0
1366.09	0
1366.47	0
1366.84	0
1367.22	0
1367.59	0
1367.96	0
1368.34	0
1368.71	0
1369.09	0
1369.46	-1
1369.83	-0.8
1370.21	-0.72
1370.58	-0.6
1370.96	-0.56
1371.33	0.44
1371.7	0.24
1372.08	0.32
1372.45	0.2
1372.82	0.56
1373.2	0.56
1373.57	0.56
1373.95	0.4
1374.32	0.4
1374.69	0.04
1375.07	0.16
1375.44	0.16
1375.81	0.24
1376.19	0.24
1376.56	0.2
1376.93	0.12
1377.31	0.12
1377.68	0.04
1378.05	0.04
1378.43	0.08
1378.8	0.16
1379.17	0.16
1379.55	0.52
1379.92	0.52
1380.29	0.48
1380.67	0.36
1381.04	0.6
1381.41	0.24
1381.79	0.24
1382.16	0.24
1382.53	0.24
1382.91	-0.96
1383.28	-0.96
1383.65	-0.92
1384.03	-0.76
1384.4	-0.76
1384.77	0.2
1385.14	0.2
1385.52	0.16
1385.89	0
1386.26	0
1386.64	0.2
1387.01	0.32
1387.38	0.48
1387.75	0.48
1388.13	0.72
1388.5	0.6
1388.87	0.48
1389.25	0.32
1389.62	0.12
1389.99	-0.32
1390.36	-0.4
1390.74	-0.4
1391.11	-0.4
1391.48	-0.16
1391.85	0.16
1392.23	0.28
1392.6	0.28
1392.97	0.28
1393.34	0.24
1393.72	0.12
1394.09	0
1394.46	0.28
1394.83	0.36
1395.21	0.68
1395.58	0.68
1395.95	0.68
1396.32	0.48
1396.69	0.4
1397.07	0.24
1397.44	0.36
1397.81	0.36
1398.18	0.4
1398.55	0.52
1398.93	0.36
1399.3	0.32
1399.67	0.32
1400.04	0.2
1400.41	0.2
1400.79	0.24
1401.16	0.44
1401.53	0.44
1401.9	0.48
1402.27	0.36
1402.65	0.32
1403.02	0.04
1403.39	0.04
1403.76	-0.04
1404.13	-0.04
1404.51	1.05473e-17
1404.88	0.08
1405.25	0.08
1405.62	0.12
1405.99	0.12
1406.36	0.08
1406.74	0
1407.11	0
1407.48	0
1407.85	-1.2
1408.22	-0.92
1408.59	-0.76
1408.96	-0.76
1409.34	-0.64
1409.71	0.76
1410.08	0.48
1410.45	0.32
1410.82	0.4
1411.19	0.52
1411.56	0.32
1411.93	0.32
1412.31	0.32
1412.68	0.48
1413.05	0.24
1413.42	0.28
1413.79	0.44
1414.16	0.24
1414.53	0.08
1414.9	0.28
1415.27	0.32
1415.65	0.16
1416.02	0.36
1416.39	0.48
1416.76	0.32
1417.13	0.28
1417.5	0.28
1417.87	0.52
1418.24	0.36
1418.61	0.32
1418.98	0.28
1419.35	0.4
1419.73	0.28
1420.1	0.24
1420.47	0.24
1420.84	0.24
1421.21	0.12
1421.58	0
1421.95	0
1422.32	0
1422.69	0
1423.06	0
1423.43	0
1423.8	0.08
1424.17	0.12
1424.54	0.24
1424.91	0.24
1425.28	0.24
1425.65	0.16
1426.02	0.12
1426.39	0.04
1426.76	-0.56
1427.14	-0.4
1427.51	-0.4
1427.88	-0.4
1428.25	-0.32
1428.62	0.28
1428.99	0.28
1429.36	0.28
1429.73	0.36
1430.1	0.36
1430.47	0.36
1430.84	0.2
1431.21	0.2
1431.58	0.12
1431.95	0.36
1432.32	0.2
1432.69	0.36
1433.06	0.4
1433.43	0.4
1433.8	0.04
1434.17	0.2
1434.54	0.24
1434.91	0.2
1435.28	0.2
1435.64	0.2
1436.01	-0.4
1436.38	-0.48
1436.75	-0.24
1437.12	-0.24
1437.49	-0.24
1437.86	0.44
1438.23	0.32
1438.6	0.12
1438.97	0.12
1439.34	0.12
1439.71	0.04
1440.08	0.12
1440.45	0.08
1440.82	-0.52
1441.19	-0.48
1441.56	-0.48
1441.93	-0.44
1442.3	-0.16
1442.67	-1.16
1443.03	-1.08
1443.4	-1.08
1443.77	-1.04
1444.14	-1.28
1444.51	0.32
1444.88	0.4
1445.25	0.4
1445.62	0.24
1445.99	0.36
1446.36	0.48
1446.73	0.28
1447.09	0.28
1447.46	0.28
1447.83	0.16
1448.2	0.12
1448.57	-0.08
1448.94	-0.08
1449.31	-0.08
1449.68	-0.12
1450.05	-0.2
1450.41	0.28
1450.78	-0.12
1451.15	-0.12
1451.52	0.12
1451.89	0.12
1452.26	-0.04
1452.63	0.52
1453	0.52
1453.36	0.36
1453.73	0.36
1454.1	0.24
1454.47	0.08
1454.84	0.08
1455.21	0
1455.57	-0.28
1455.94	-0.2
1456.31	-0.16
1456.68	-0.04
1457.05	-0.04
1457.42	0.4
1457.78	0.44
1458.15	0.4
1458.52	0.28
1458.89	0.32
1459.26	0.16
1459.63	0.04
1459.99	0.12
1460.36	0.16
1460.73	0.12
1461.1	0.2
1461.47	0.2
1461.83	0.28
1462.2	0.24
1462.57	0.24
1462.94	0.16
1463.31	0.16
1463.67	0.28
1464.04	0.08
1464.41	0.08
1464.78	-0.2
1465.15	-0.04
1465.51	-0.28
1465.88	-0.04
1466.25	0.16
1466.62	0.44
1466.98	0.28
1467.35	0.28
1467.72	0.28
1468.09	0.12
1468.46	0.12
1468.82	0.28
1469.19	0.24
1469.56	0.2
1469.93	0.2
1470.29	0.36
1470.66	0.2
1471.03	0.28
1471.4	0.28
1471.76	0.24
1472.13	0.12
1472.5	0.16
1472.86	0.08
1473.23	0.16
1473.6	0.16
1473.97	0.12
1474.33	0.08
1474.7	0.08
1475.07	0.16
1475.44	0.16
1475.8	0.04
1476.17	0.16
1476.54	0.44
1476.9	0.32
1477.27	0.36
1477.64	0.56
1478	0.44
1478.37	0.48
1478.74	0.88
1479.11	1.04
1479.47	0.96
1479.84	0.96
1480.21	0.64
1480.57	0.2
1480.94	0
1481.31	0
1481.67	0
1482.04	0.04
1482.41	0.04
1482.77	0.04
1483.14	0.04
1483.51	0.2
1483.87	0.2
1484.24	0.2
1484.61	0.2
1484.97	0.2
1485.34	0.04
1485.71	-1
1486.07	-0.88
1486.44	-0.88
1486.81	-0.76
1487.17	-0.76
1487.54	0.24
1487.9	0.12
1488.27	0.2
1488.64	-0.12
1489	-0.12
1489.37	-0.08
1489.74	-0.08
1490.1	-0.16
1490.47	0.16
1490.83	0.16
1491.2	0.16
1491.57	0.28
1491.93	0.52
1492.3	0.44
1492.66	0.52
1493.03	0.52
1493.4	0.48
1493.76	0.24
1494.13	0.2
1494.49	0.12
1494.86	0.08
1495.23	0.2
1495.59	0.2
1495.96	-1.2
1496.32	-1.08
1496.69	-1.08
1497.06	-1.28
1497.42	-1.96
1497.79	-0.44
1498.15	-0.56
1498.52	-0.56
1498.88	-0.36
1499.25	0.44
1499.62	-0.08
1499.98	-0.08
1500.35	-0.08
1500.71	-0.28
1501.08	-0.4
1501.44	0
1501.81	0.24
1502.17	0.28
1502.54	0.28
1502.9	0.28
1503.27	0.28
1503.64	0.32
1504	0.4
1504.37	0.4
1504.73	0.52
1505.1	0.64
1505.46	0.36
1505.83	0.24
1506.19	0.24
1506.56	0.24
1506.92	0.12
1507.29	0.28
1507.65	0.28
1508.02	0.36
1508.38	0.24
1508.75	0.32
1509.11	0.24
1509.48	0.52
1509.84	0.44
1510.21	0.52
1510.57	0.44
1510.94	0.36
1511.3	0.2
1511.67	0.48
1512.03	0.4
1512.4	0.68
1512.76	0.76
1513.13	-0.2
1513.49	-0.68
1513.85	-0.68
1514.22	-0.92
1514.58	-1
1514.95	-0.16
1515.31	0.32
1515.68	0.32
1516.04	0.48
1516.41	0.56
1516.77	0.56
1517.14	0.32
1517.5	0.52
1517.86	0.44
1518.23	0.36
1518.59	0.36
1518.96	0.32
1519.32	0.12
1519.69	0.08
1520.05	0.08
1520.41	0.28
1520.78	0.64
1521.14	0.64
1521.51	0.56
1521.87	0.56
1522.24	0.36
1522.6	0.04
1522.96	0.24
1523.33	0.24
1523.69	0.24
1524.06	0.24
1524.42	0.32
1524.78	0.28
1525.15	0.28
1525.51	0.32
1525.88	0.36
1526.24	0.4
1526.6	0.24
1526.97	0.24
1527.33	0.2
1527.69	0.24
1528.06	0.08
1528.42	0.08
1528.79	0.12
1529.15	-0.48
1529.51	-0.44
1529.88	-0.12
1530.24	-0.12
1530.6	0.2
1530.97	0.8
1531.33	0.68
1531.69	0.56
1532.06	0.56
1532.42	0.32
1532.78	0.32
1533.15	0.56
1533.51	0.36
1533.87	0.48
1534.24	0.36
1534.6	0.48
1534.96	0.32
1535.33	0.32
1535.69	0.36
1536.05	0.4
1536.42	0.32
1536.78	0.24
1537.14	0.24
1537.51	0.16
1537.87	0.12
1538.23	0.2
1538.6	0.44
1538.96	0.72
1539.32	1.12
1539.68	1.12
1540.05	1
1540.41	1.16
1540.77	0.88
1541.14	0.4
1541.5	0.48
1541.86	0.48
1542.23	0.12
1542.59	0.12
1542.95	0.28
1543.31	0.2
1543.68	0.28
1544.04	0.24
1544.4	0.44
1544.76	0.28
1545.13	0.28
1545.49	0.2
1545.85	0.52
1546.21	0.52
1546.58	0.52
1546.94	0.64
1547.3	0.64
1547.66	0.4
1548.03	0.32
1548.39	0.68
1548.75	0.56
1549.11	0.6
1549.48	0.52
1549.84	0.44
1550.2	0.08
1550.56	0.16
1550.93	0.16
1551.29	0.2
1551.65	0.24
1552.01	0.28
1552.37	0.2
1552.74	0.32
1553.1	0.32
1553.46	0.4
1553.82	0.36
1554.18	0.36
1554.55	0.32
1554.91	0.44
1555.27	0.28
1555.63	0.28
1555.99	0.28
1556.36	0.32
1556.72	-1.44
1557.08	-1.24
1557.44	-1
1557.8	-0.68
1558.17	-0.76
1558.53	1
1558.89	0.8
1559.25	0.56
1559.61	0.4
1559.97	0.36
1560.34	0.24
1560.7	0.24
1561.06	0.44
1561.42	0.28
1561.78	0.24
1562.14	-0.2
1562.5	-0.2
1562.87	-0.4
1563.23	-0.4
1563.59	-0.68
1563.95	-0.28
1564.31	-0.28
1564.67	-0.2
1565.03	0.08
1565.4	0.4
1565.76	0.4
1566.12	0.4
1566.48	0.6
1566.84	0.4
1567.2	0.36
1567.56	0.4
1567.92	0.4
1568.29	0.44
1568.65	0.4
1569.01	0.4
1569.37	0.16
1569.73	0.24
1570.09	-0.08
1570.45	0.08
1570.81	0.08
1571.17	0.32
1571.53	0.24
1571.89	0.36
1572.26	0.16
1572.62	0.16
1572.98	0.32
1573.34	0.44
1573.7	0.6
1574.06	0.76
1574.42	0.76
1574.78	0.4
1575.14	0.28
1575.5	0.2
1575.86	-0.76
1576.22	-0.68
1576.58	-0.52
1576.94	-0.36
1577.3	-0.48
1577.67	0.44
1578.03	0.36
1578.39	0.4
1578.75	0.24
1579.11	0.72
1579.47	0.68
1579.83	0.68
1580.19	0.64
1580.55	0.92
1580.91	0.64
1581.27	0.72
1581.63	0.96
1581.99	1
1582.35	0.84
1582.71	0.56
1583.07	0.48
1583.43	0.24
1583.79	0.4
1584.15	0.28
1584.51	0.4
1584.87	0.4
1585.23	0.4
1585.59	0.2
1585.95	0.4
1586.31	0.28
1586.67	0.2
1587.03	0.2
1587.39	0.2
1587.75	0
1588.11	0
1588.47	0
1588.83	0
1589.19	0.12
1589.55	0.12
1589.91	0.36
1590.27	0.44
1590.63	0.52
1590.99	0.64
1591.35	0.68
1591.71	0.56
1592.07	0.52
1592.42	0.76
1592.78	0.8
1593.14	0.84
1593.5	0.72
1593.86	0.8
1594.22	0.48
1594.58	0.2
1594.94	0.16
1595.3	0.24
1595.66	0.2
1596.02	0.2
1596.38	0.2
1596.74	0.2
1597.1	0.12
1597.46	0.08
1597.81	0.2
1598.17	0.2
1598.53	0.16
1598.89	0.16
1599.25	0.16
1599.61	0.24
1599.97	0.44
1600.33	0.48
1600.69	0.76
1601.05	0.72
1601.4	0.52
1601.76	-2.88669e-17
1602.12	-0.04
1602.48	-0.32
1602.84	-0.08
1603.2	-0.04
1603.56	0.92
1603.92	1.08
1604.28	1.08
1604.63	1.12
1604.99	1.08
1605.35	0.52
1605.71	0.4
1606.07	0.4
1606.43	0.2
1606.79	0.24
1607.14	0.24
1607.5	0.2
1607.86	0.2
1608.22	0.12
1608.58	0.16
1608.94	0.12
1609.29	0.12
1609.65	-0.08
1610.01	-0.08
1610.37	-0.12
1610.73	-0.04
1611.09	0.16
1611.44	0.36
1611.8	0.36
1612.16	0.4
1612.52	0.28
1612.88	0.48
1613.24	0.56
1613.59	0.64
1613.95	0.56
1614.31	0.56
1614.67	0.32
1615.03	0.32
1615.38	0.24
1615.74	0.24
1616.1	0.44
1616.46	0.36
1616.82	0.28
1617.17	0.28
1617.53	0.6
1617.89	0.76
1618.25	0.76
1618.6	1.12
1618.96	1.12
1619.32	0.84
1619.68	0.48
1620.04	0.44
1620.39	0.12
1620.75	0.24
1621.11	0.56
1621.47	0.56
1621.82	0.52
1622.18	0.64
1622.54	0.52
1622.9	0.16
1623.25	-0.84
1623.61	-0.84
1623.97	-0.84
1624.33	-0.8
1624.68	-0.76
1625.04	0.24
1625.4	0.24
1625.75	-0.52
1626.11	-0.52
1626.47	-0.56
1626.83	-0.44
1627.18	-0.28
1627.54	0.32
1627.9	0.44
1628.26	0.76
1628.61	0.68
1628.97	0.52
1629.33	0.52
1629.68	0.36
1630.04	0.16
1630.4	-0.44
1630.75	-0.16
1631.11	-0.16
1631.47	-0.36
1631.83	-0.48
1632.18	0.08
1632.54	-0.2
1632.9	-0.2
1633.25	0
1633.61	0
1633.97	0
1634.32	0.12
1634.68	0.12
1635.04	0.12
1635.39	0.12
1635.75	0.28
1636.11	0.16
1636.46	0.2
1636.82	0.28
1637.18	0.32
1637.53	0.16
1637.89	0.16
1638.25	0.2
1638.6	0.12
1638.96	0.12
1639.31	0.12
1639.67	0.2
1640.03	0.12
1640.38	0.12
1640.74	0.28
1641.1	0.28
1641.45	0.2
1641.81	0.2
1642.16	0.2
1642.52	0
1642.88	0
1643.23	-0.6
1643.59	-0.08
1643.95	-3.44166e-17
1644.3	0.52
1644.66	0.52
1645.01	1.28
1645.37	0.76
1645.73	0.68
1646.08	0.16
1646.44	0.44
1646.79	-0.32
1647.15	-0.32
1647.51	-0.32
1647.86	-0.32
1648.22	-0.6
1648.57	-0.72
1648.93	-0.6
1649.28	-0.52
1649.64	-0.4
1650	-0.4
1650.35	0.4
1650.71	0.4
1651.06	0.36
1651.42	0.24
1651.77	0.12
1652.13	0.16
1652.48	0.08
1652.84	0.04
1653.2	0.08
1653.55	0.24
1653.91	0.2
1654.26	0.24
1654.62	0.24
1654.97	0.32
1655.33	0.28
1655.68	0.2
1656.04	0.12
1656.39	0.56
1656.75	0.44
1657.1	0.72
1657.46	0.72
1657.81	0.72
1658.17	0.44
1658.52	0.48
1658.88	0.2
1659.23	0.2
1659.59	0.2
1659.94	0.24
1660.3	0.28
1660.65	0.28
1661.01	0.4
1661.36	0.4
1661.72	0.24
1662.07	0.16
1662.43	0.32
1662.78	0.2
1663.14	0.28
1663.49	0.6
1663.85	0.6
1664.2	0.44
1664.56	0.56
1664.91	-1.08
1665.27	-1.44
1665.62	-1.28
1665.98	-1.28
1666.33	-1.4
1666.69	0.2
1667.04	0.48
1667.39	0.48
1667.75	0.48
1668.1	0.48
1668.46	0.68
1668.81	0.4
1669.17	0.24
1669.52	0.24
1669.88	0.36
1670.23	0.28
1670.58	0.52
1670.94	0.52
1671.29	0.52
1671.65	0.68
1672	0.56
1672.36	0.44
1672.71	0.44
1673.06	0.92
1673.42	0.44
1673.77	0.6
1674.13	0.52
1674.48	0.56
1674.83	0.2
1675.19	0.56
1675.54	0.4
1675.9	0.4
1676.25	0.4
1676.6	0.52
1676.96	0.4
1677.31	0.36
1677.67	0.4
1678.02	0.36
1678.37	0.16
1678.73	0.12
1679.08	0.12
1679.43	0.04
1679.79	0.04
1680.14	0.28
1680.5	-0.08
1680.85	-0.08
1681.2	0.04
1681.56	0.04
1681.91	-0.08
1682.26	0.32
1682.62	0.36
1682.97	0.44
1683.32	0.64
1683.68	0.8
1684.03	0.76
1684.38	0.76
1684.74	0.56
1685.09	0.48
1685.44	-0.04
1685.8	0.04
1686.15	-6.66107e-18
1686.5	-6.66107e-18
1686.86	-0.12
1687.21	-0.04
1687.56	-0.12
1687.92	-0.12
1688.27	0.28
1688.62	0.28
1688.98	0.6
1689.33	0.72
1689.68	0.76
1690.03	0.36
1690.39	0.4
1690.74	0.48
1691.09	0.56
1691.45	0.12
1691.8	0.12
1692.15	0.08
1692.5	-0.04
1692.86	-0.08
1693.21	0.32
1693.56	0.48
1693.92	0.68
1694.27	-0.08
1694.62	-0.24
1694.97	-0.24
1695.33	-0.4
1695.68	-0.6
1696.03	0.16
1696.38	0.28
1696.74	0.28
1697.09	0.08
1697.44	0.16
1697.79	-6.66107e-18
1698.15	-0.12
1698.5	-0.12
1698.85	0.16
1699.2	-0.72
1699.56	-0.72
1699.91	-0.64
1700.26	-0.64
1700.61	-0.72
1700.97	0.08
1701.32	0.16
1701.67	0.08
1702.02	0.08
1702.37	0.16
1702.73	0.44
1703.08	0.36
1703.43	0.44
1703.78	0.44
1704.13	0.48
1704.49	0.36
1704.84	0.36
1705.19	0.32
1705.54	0.68
1705.89	0.56
1706.25	0.4
1706.6	0.48
1706.95	0.44
1707.3	0.08
1707.65	0.16
1708.01	0.4
1708.36	0.32
1708.71	0.48
1709.06	0.48
1709.41	0.4
1709.76	0.16
1710.12	0.2
1710.47	0.04
1710.82	0.04
1711.17	0.24
1711.52	0.24
1711.87	0.28
1712.23	0.28
1712.58	0.28
1712.93	0.08
1713.28	0.08
1713.63	0
1713.98	0
1714.33	0
1714.69	0
1715.04	0.08
1715.39	0.32
1715.74	0.44
1716.09	0.6
1716.44	0.72
1716.79	0.68
1717.14	0.48
1717.5	0.44
1717.85	0.44
1718.2	0.4
1718.55	0.36
1718.9	0.44
1719.25	0.48
1719.6	0.48
1719.95	0.44
1720.3	0.44
1720.65	0.36
1721.01	0.28
1721.36	0.24
1721.71	0.2
1722.06	-0.24
1722.41	-0.36
1722.76	-0.16
1723.11	-0.24
1723.46	-0.04
1723.81	0.72
1724.16	0.88
1724.51	0.64
1724.86	1.08
1725.21	1.2
1725.56	0.92
1725.92	0.84
1726.27	0.84
1726.62	0.36
1726.97	0.16
1727.32	-0.16
1727.67	-0.16
1728.02	-0.16
1728.37	-0.04
1728.72	4.2189e-17
1729.07	0.28
1729.42	0.64
1729.77	0.76
1730.12	0.88
1730.47	0.96
1730.82	1.28
1731.17	1
1731.52	0.88
1731.87	1.08
1732.22	1.2
1732.57	0.96
1732.92	0.88
1733.27	0.88
1733.62	0.44
1733.97	0.76
1734.32	0.68
1734.67	0.72
1735.02	0.68
1735.37	0.76
1735.72	0.36
1736.07	0.48
1736.42	0.56
1736.77	0.88
1737.12	0.84
1737.47	0.76
1737.82	0.8
1738.17	1.48
1738.52	1.24
1738.87	1.52
1739.22	1.64
1739.57	1.88
1739.92	1.16
1740.27	1.28
1740.62	1.28
1740.97	1.4
1741.32	1.16
1741.67	1.24
1742.02	1.44
1742.37	1.72
1742.72	1.44
1743.06	1.8
1743.41	2.72
1743.76	2.6
1744.11	1.6
1744.46	2.28
1744.81	1.92
1745.16	1.28
1745.51	1.68
1745.86	2.32
1746.21	1.72
1746.56	2.28
1746.91	2.64
1747.26	3.72
1747.6	4.2
1747.95	4.48
1748.3	4.56
1748.65	3.96
1749	2.92
1749.35	3.32
1749.7	4.92
1750.05	5.12
1750.4	5.96
1750.75	6.48
1751.09	5.68
1751.44	5.12
1751.79	5.04
1752.14	5.64
1752.49	5.88
1752.84	6.8
1753.19	6.04
1753.54	6.64
1753.88	6.48
1754.23	5.88
1754.58	5.64
1754.93	5.72
1755.28	6.16
1755.63	6.16
1755.98	7.04
1756.32	6.92
1756.67	6.72
1757.02	5.4
1757.37	5.92
1757.72	5.24
1758.07	6.16
1758.42	7
1758.76	7.4
1759.11	6.92
1759.46	7.04
1759.81	5.64
1760.16	5.36
1760.5	5.48
1760.85	4.28
1761.2	5.12
1761.55	5.72
1761.9	4.84
1762.25	5.56
1762.59	6.8
1762.94	5.72
1763.29	5.8
1763.64	6.16
1763.99	4.96
1764.33	4.48
1764.68	4.6
1765.03	5
1765.38	4.76
1765.73	4.84
1766.07	4.32
1766.42	4.24
1766.77	4.32
1767.12	4.84
1767.46	4.52
1767.81	5.48
1768.16	4.56
1768.51	3.84
1768.85	3.48
1769.2	3.32
1769.55	3
1769.9	3.36
1770.25	3.12
1770.59	3.48
1770.94	4.32
1771.29	4.04
1771.64	3.92
1771.98	3.56
1772.33	3.24
1772.68	2.72
1773.02	3.36
1773.37	3.24
1773.72	3.88
1774.07	4.2
1774.41	3.96
1774.76	2.64
1775.11	3.92
1775.46	3.32
1775.8	2.72
1776.15	3.72
1776.5	3.6
1776.84	2.72
1777.19	2.96
1777.54	3
1777.89	2.8
1778.23	3.6
1778.58	3.2
1778.93	2.88
1779.27	2.92
1779.62	1.88
1779.97	1.2
1780.31	1.08
1780.66	1.2
1781.01	0.88
1781.35	0.76
1781.7	0.52
1782.05	0.6
1782.39	0.48
1782.74	0.48
1783.09	0.48
1783.43	0.72
1783.78	0.68
1784.13	0.72
1784.47	-0.04
1784.82	0.56
1785.17	0.44
1785.51	0.52
1785.86	0.28
1786.21	1.2
1786.55	0.92
1786.9	0.8
1787.25	0.76
1787.59	1.28
1787.94	0.96
1788.29	0.64
1788.63	0.64
1788.98	0.76
1789.32	0.64
1789.67	0.96
1790.02	1.64
1790.36	2.72
1790.71	3.16
1791.06	2.92
1791.4	2.76
1791.75	2.24
1792.09	1.4
1792.44	0.36
1792.79	-1.4
1793.13	-1.28
1793.48	-1.12
1793.82	-1.36
1794.17	-3
1794.52	-1.2
1794.86	-1.44
1795.21	-1.76
1795.55	-1.76
1795.9	1.12
1796.24	3.88
1796.59	4.44
1796.94	5.32
1797.28	6.24
1797.63	5.36
1797.97	3.08
1798.32	2.52
1798.66	2.8
1799.01	2.8
1799.36	3.2
1799.7	4.68
1800.05	7.04
1800.39	6.8
1800.74	10.12
1801.08	14.92
1801.43	14.32
1801.77	12.48
1802.12	12.16
1802.46	8.44
1802.81	4.4
1803.15	3.12
1803.5	3.72
1803.85	3.36
1804.19	4.64
1804.54	8.2
1804.88	10.8
1805.23	11.12
1805.57	15.44
1805.92	18.16
1806.26	15.8
1806.61	16.04
1806.95	19.88
1807.3	25.28
1807.64	27.68
1807.99	27.6
1808.33	26.52
1808.68	25.04
1809.02	25.96
1809.37	31.52
1809.71	35.28
1810.06	36.96
1810.4	37.04
1810.75	30.32
1811.09	31.24
1811.43	43.12
1811.78	51.2
1812.12	57.32
1812.47	62.28
1812.81	55.24
1813.16	47.48
1813.5	44.6
1813.85	40.16
1814.19	39.12
1814.54	39
1814.88	33.2
1815.23	27.96
1815.57	24.64
1815.91	18.68
1816.26	24.4
1816.6	37.6
1816.95	43.96
1817.29	54.28
1817.64	67.8
1817.98	70
1818.32	71.16
1818.67	77.2
1819.01	74.96
1819.36	73.16
1819.7	68.32
1820.05	59
1820.39	60.96
1820.73	62.12
1821.08	56.56
1821.42	61.88
1821.77	63.36
1822.11	49.52
1822.45	51.28
1822.8	56.68
1823.14	48.96
1823.49	59.72
1823.83	84.24
1824.17	90.4
1824.52	97.16
1824.86	107.64
1825.2	97.48
1825.55	81.32
1825.89	72.84
1826.24	67.36
1826.58	76.76
1826.92	86.84
1827.27	87.92
1827.61	96.28
1827.95	98.72
1828.3	81.52
1828.64	71.64
1828.98	69.68
1829.33	62.56
1829.67	76.2
1830.02	92.8
1830.36	99.72
1830.7	114.96
1831.05	128.96
1831.39	114.36
1831.73	109.04
1832.08	113.4
1832.42	100.32
1832.76	92.44
1833.1	97.72
1833.45	89.96
1833.79	82.52
1834.13	88.48
1834.48	86.36
1834.82	85.76
1835.16	94.32
1835.51	91.6
1835.85	86.32
1836.19	89.04
1836.54	77.72
1836.88	66.28
1837.22	62.6
1837.56	58.76
1837.91	59.8
1838.25	79.68
1838.59	93.04
1838.94	100.68
1839.28	109.28
1839.62	104.08
1839.96	90.08
1840.31	82.6
1840.65	77.76
1840.99	76.88
1841.34	99.6
1841.68	115.96
1842.02	124.56
1842.36	137.84
1842.71	135.44
1843.05	111.2
1843.39	111.68
1843.73	124
1844.08	128.64
1844.42	146.56
1844.76	164.44
1845.1	153.28
1845.45	138.84
1845.79	135.96
1846.13	127.04
1846.47	121.12
1846.81	120.28
1847.16	119.88
1847.5	126.68
1847.84	140.6
1848.18	144.8
1848.53	152.2
1848.87	158.64
1849.21	146.56
1849.55	132.88
1849.89	131.44
1850.24	122.28
1850.58	115.44
1850.92	118.8
1851.26	113.88
1851.6	107.24
1851.95	114.24
1852.29	112.32
1852.63	106.96
1852.97	108.84
1853.31	103.32
1853.66	93.84
1854	91.76
1854.34	90.16
1854.68	93.88
1855.02	107.76
1855.36	111.52
1855.71	113.48
1856.05	116.96
1856.39	106.36
1856.73	93.84
1857.07	93.64
1857.41	90.28
1857.76	86.2
1858.1	94.24
1858.44	91.76
1858.78	87.12
1859.12	88.6
1859.46	82.56
1859.8	70.6
1860.15	66.88
1860.49	66.88
1860.83	70.28
1861.17	85
1861.51	88.92
1861.85	91.2
1862.19	92
1862.53	84.16
1862.88	73.64
1863.22	76.2
1863.56	75
1863.9	73.04
1864.24	80.44
1864.58	77.84
1864.92	73.16
1865.26	77.72
1865.6	74.08
1865.94	64
1866.29	64.8
1866.63	59.96
1866.97	52.92
1867.31	53.08
1867.65	51.36
1867.99	50.08
1868.33	52.6
1868.67	50.32
1869.01	46.64
1869.35	47.56
1869.69	52.44
1870.03	58
1870.37	64.16
1870.72	71.96
1871.06	76.32
1871.4	68.68
1871.74	58.8
1872.08	53.96
1872.42	51
1872.76	52.92
1873.1	58.16
1873.44	61.2
1873.78	58.84
1874.12	52.16
1874.46	42.4
1874.8	39.76
1875.14	45.52
1875.48	50.36
1875.82	54.28
1876.16	58.28
1876.5	58.92
1876.84	55.84
1877.18	55.16
1877.52	54.92
1877.86	52.56
1878.2	47.6
1878.54	40.44
1878.88	37.12
1879.22	34.36
1879.56	31.52
1879.9	28.68
1880.24	29.8
1880.58	28.56
1880.92	29.2
1881.26	31.72
1881.6	30.84
1881.94	27.4
1882.28	25.68
1882.62	23
1882.96	22.56
1883.3	28.16
1883.64	33.56
1883.98	33.84
1884.32	34.88
1884.66	32.88
1885	26
1885.34	20.96
1885.68	22.72
1886.02	21.56
1886.36	19.28
1886.7	19.84
1887.04	19.44
1887.38	15.2
1887.72	13.08
1888.06	12
1888.39	9.28
1888.73	7.52
1889.07	7.76
1889.41	9.2
1889.75	8.52
1890.09	11.56
1890.43	17.28
1890.77	20.32
1891.11	21.72
1891.45	23
1891.79	20.08
1892.13	16.92
1892.47	13.12
1892.8	8.88
1893.14	7.64
1893.48	7.6
1893.82	5.24
1894.16	6.68
1894.5	8.8
1894.84	9
1895.18	8.72
1895.52	8.36
1895.86	5.96
1896.19	4.48
1896.53	4.44
1896.87	4.48
1897.21	3.76
1897.55	5.04
1897.89	5.04
1898.23	5.08
1898.57	6.04
1898.9	6.96
1899.24	5.88
1899.58	5.8
1899.92	5.2
1900.26	3.88
1900.6	3.8
1900.94	4.6
1901.27	4.16
1901.61	3.72
1901.95	3.88
1902.29	3.88
1902.63	3
1902.97	3.04
1903.3	2.6
1903.64	2.32
1903.98	2.52
1904.32	2.8
1904.66	2.96
1905	3.64
1905.33	4.08
1905.67	3.36
1906.01	2.8
1906.35	2.92
1906.69	2.96
1907.02	2.96
1907.36	3.36
1907.7	3.36
1908.04	3.48
1908.38	3.76
1908.71	3.72
1909.05	3.28
1909.39	3.08
1909.73	3.28
1910.07	2.8
1910.4	2.28
1910.74	2.04
1911.08	2.32
1911.42	1.48
1911.76	1.28
1912.09	1.8
1912.43	1.72
1912.77	2.12
1913.11	3.12
1913.44	3.96
1913.78	3.52
1914.12	4.48
1914.46	4.76
1914.79	4.64
1915.13	4.52
1915.47	4.96
1915.81	4.6
1916.14	3.64
1916.48	4.04
1916.82	3.76
1917.16	3.16
1917.49	3.56
1917.83	3.92
1918.17	3.8
1918.5	3.76
1918.84	5.48
1919.18	5.36
1919.52	6.12
1919.85	6.76
1920.19	6.4
1920.53	5.48
1920.87	4.96
1921.2	6
1921.54	6.08
1921.88	7.76
1922.21	9.32
1922.55	11.48
1922.89	10
1923.22	11.08
1923.56	10.48
1923.9	9.08
1924.23	9.52
1924.57	10.8
1924.91	9.28
1925.25	10.32
1925.58	11.36
1925.92	10.36
1926.26	10.64
1926.59	11.24
1926.93	10.52
1927.27	10.8
1927.6	13.4
1927.94	13.24
1928.28	14.84
1928.61	16.48
1928.95	17.92
1929.29	16.08
1929.62	18
1929.96	18.4
1930.29	18.28
1930.63	18.8
1930.97	19.92
1931.3	18.76
1931.64	17.04
1931.98	18.04
1932.31	17.56
1932.65	17.92
1932.99	19.88
1933.32	21.96
1933.66	21.56
1933.99	23.84
1934.33	24.04
1934.67	23.8
1935	24.32
1935.34	24.52
1935.67	23.92
1936.01	25.04
1936.35	26.76
1936.68	27.12
1937.02	29.36
1937.35	29.16
1937.69	28.72
1938.03	27.92
1938.36	28.04
1938.7	27.4
1939.03	28.4
1939.37	29.96
1939.7	30.52
1940.04	31.68
1940.38	32.92
1940.71	33.8
1941.05	32.92
1941.38	34.72
1941.72	36.36
1942.05	35.32
1942.39	36.08
1942.73	38.88
1943.06	38.2
1943.4	38.28
1943.73	41.6
1944.07	41.64
1944.4	41.96
1944.74	44.84
1945.07	45.28
1945.41	44.32
1945.74	46.28
1946.08	45.76
1946.42	44.32
1946.75	45
1947.09	46.56
1947.42	45.04
1947.76	45.64
1948.09	46.2
1948.43	45.4
1948.76	45.36
1949.1	47.48
1949.43	48
1949.77	49.72
1950.1	52.8
1950.44	52.88
1950.77	50.92
1951.11	52.28
1951.44	52.72
1951.78	50.16
1952.11	50.8
1952.45	53.36
1952.78	53.52
1953.12	52.2
1953.45	53.96
1953.79	55.04
1954.12	53.2
1954.46	52.96
1954.79	55.4
1955.12	55.12
1955.46	54.4
1955.79	55.92
1956.13	56.16
1956.46	53.2
1956.8	53.64
1957.13	55.32
1957.47	55.32
1957.8	54.92
1958.14	57.16
1958.47	58.96
1958.8	57.28
1959.14	58.4
1959.47	60.52
1959.81	61.08
1960.14	58.76
1960.48	61
1960.81	61.36
1961.14	59.68
1961.48	59.56
1961.81	61.56
1962.15	59.68
1962.48	59.68
1962.82	60.72
1963.15	61.24
1963.48	60.88
1963.82	62.16
1964.15	62.56
1964.49	64.04
1964.82	63.64
1965.15	61.96
1965.49	62.32
1965.82	60.72
1966.16	59.04
1966.49	58.88
1966.82	59.12
1967.16	59.04
1967.49	60.68
1967.83	61.4
1968.16	61.48
1968.49	61.04
1968.83	58.52
1969.16	57.6
1969.49	56.52
1969.83	56.76
1970.16	57
1970.49	58.4
1970.83	56.92
1971.16	57.2
1971.5	56.52
1971.83	56.64
1972.16	54.76
1972.5	55.28
1972.83	54.28
1973.16	51.64
1973.5	52.48
1973.83	52.32
1974.16	52.08
1974.5	51.12
1974.83	52.48
1975.16	51.24
1975.5	51.56
1975.83	52
1976.16	51.28
1976.49	51.12
1976.83	49.16
1977.16	50.56
1977.49	50.2
1977.83	50.44
1978.16	47.6
1978.49	46.84
1978.83	45.76
1979.16	43.16
1979.49	41.48
1979.83	43.12
1980.16	43.12
1980.49	40.72
1980.82	39.4
1981.16	38.96
1981.49	37.36
1981.82	36.8
1982.15	36.6
1982.49	36.44
1982.82	35.12
1983.15	34.2
1983.49	34.88
1983.82	34.04
1984.15	33.68
1984.48	34.16
1984.82	33.76
1985.15	31.44
1985.48	30.84
1985.81	30
1986.15	28.96
1986.48	27.6
1986.81	27.12
1987.14	26.56
1987.48	25.6
1987.81	23.4
1988.14	22.52
1988.47	20.84
1988.81	18.8
1989.14	18.28
1989.47	19.76
1989.8	18.68
1990.13	18.6
1990.47	18.04
1990.8	17.44
1991.13	15.6
1991.46	16.36
1991.79	15.28
1992.13	13.64
1992.46	13.8
1992.79	13.32
1993.12	12.6
1993.45	11.36
1993.79	11.56
1994.12	10.56
1994.45	9.04
1994.78	7.48
1995.11	8.56
1995.45	8.72
1995.78	8.2
1996.11	8.2
1996.44	7.68
1996.77	6.56
1997.1	5.52
1997.44	4.84
1997.77	4.96
1998.1	4.56
1998.43	4.64
1998.76	4.32
1999.09	3.68
1999.43	2.4
1999.76	2.8
2000.09	2.44
2000.42	2.08
2000.75	0.64
2001.08	1.04
2001.41	0.68
2001.75	0.4
2002.08	0.6
2002.41	1.48
2002.74	1.56
2003.07	1.44
2003.4	1.08
2003.73	0.8
2004.06	1
2004.4	0.8
2004.73	1
2005.06	0.8
2005.39	1.12
2005.72	0.92
2006.05	0.92
2006.38	0.4
2006.71	0.8
2007.04	0.44
2007.37	0.6
2007.71	0.6
2008.04	0.88
2008.37	0.84
2008.7	0.92
2009.03	0.8
2009.36	0.88
2009.69	0.88
2010.02	0.88
2010.35	0.8
2010.68	0.84
2011.01	0.84
2011.34	0.44
2011.67	0.36
2012.01	0.52
2012.34	0.32
2012.67	0.28
2013	0.28
2013.33	0.56
2013.66	0.56
2013.99	0.76
2014.32	1.04
2014.65	1.76
2014.98	1.68
2015.31	2.28
2015.64	2.24
2015.97	1.92
2016.3	1.48
2016.63	1.2
2016.96	0.76
2017.29	0.04
2017.62	0.24
2017.95	0.56
2018.28	0.56
2018.61	0.76
2018.94	1.8
2019.27	1.6
2019.6	1.2
2019.93	1.76
2020.26	1.56
2020.59	1.8
2020.92	2.48
2021.25	2.36
2021.58	1.92
2021.91	1.84
2022.24	1.68
2022.57	1.96
2022.9	2.4
2023.23	2.28
2023.56	2.56
2023.89	2.84
2024.22	2.36
2024.55	2.48
2024.88	2.92
2025.21	2.68
2025.54	2.32
2025.87	2.16
2026.2	2.32
2026.53	2.36
2026.86	2.2
2027.19	3.04
2027.52	3.24
2027.85	3.92
2028.18	4.24
2028.51	5
2028.84	4.32
2029.16	5.12
2029.49	4.2
2029.82	3.76
2030.15	3.64
2030.48	2.76
2030.81	2.48
2031.14	4.08
2031.47	5.72
2031.8	6.2
2032.13	6.44
2032.46	6.96
2032.79	5.92
2033.12	5.08
2033.44	5.4
2033.77	6.52
2034.1	5.56
2034.43	5.08
2034.76	4.72
2035.09	4
2035.42	4.2
2035.75	4.56
2036.08	4.92
2036.41	5.28
2036.73	5.36
2037.06	6.52
2037.39	7.56
2037.72	7.76
2038.05	7.56
2038.38	8.32
2038.71	6.28
2039.04	4.52
2039.36	4.32
2039.69	5.24
2040.02	4.96
2040.35	5.4
2040.68	6.6
2041.01	6.64
2041.34	5.8
2041.66	5.4
2041.99	5.04
2042.32	5.12
2042.65	5.88
2042.98	5.92
2043.31	5.28
2043.63	5.96
2043.96	6.2
2044.29	4.96
2044.62	5.36
2044.95	6.64
2045.28	6.12
2045.6	5.36
2045.93	5.6
2046.26	4.6
2046.59	3.92
2046.92	4.08
2047.24	4.08
2047.57	3.96
2047.9	4.08
2048.23	4.12
2048.56	3.6
2048.88	3.4
2049.21	3.56
2049.54	3.44
2049.87	3
2050.2	2.96
2050.52	2.16
2050.85	1.56
2051.18	1.92
2051.51	2.04
2051.83	2.28
2052.16	2.76
2052.49	3.64
2052.82	3.76
2053.15	3.36
2053.47	3.44
2053.8	3.4
2054.13	2.96
2054.46	3.08
2054.78	2.96
2055.11	2.92
2055.44	3
2055.77	2.92
2056.09	2.12
2056.42	2.04
2056.75	1.76
2057.08	1.56
2057.4	1.36
2057.73	1.2
2058.06	1.72
2058.38	1.76
2058.71	1.92
2059.04	2.04
2059.37	2.16
2059.69	1.6
2060.02	1.32
2060.35	1.12
2060.67	1.88
2061	1.84
2061.33	1.6
2061.66	1.72
2061.98	1.76
2062.31	0.76
2062.64	0.84
2062.96	1.16
2063.29	1.16
2063.62	1.24
2063.94	1.36
2064.27	1.24
2064.6	0.32
2064.92	0.16
2065.25	-0.24
2065.58	-0.28
2065.91	-0.28
2066.23	0.76
2066.56	1.12
2066.89	1.48
2067.21	1.12
2067.54	1.76
2067.87	1.52
2068.19	1.24
2068.52	1
2068.84	1.8
2069.17	1.4
2069.5	1.72
2069.82	2.6
2070.15	2.76
2070.48	2
2070.8	1.76
2071.13	1.6
2071.46	0.64
2071.78	0.36
2072.11	0.32
2072.43	0.16
2072.76	0
2073.09	0.16
2073.41	0.16
2073.74	0.44
2074.07	0.44
2074.39	0.44
2074.72	0.4
2075.04	0.4
2075.37	0.16
2075.7	0.36
2076.02	0.36
2076.35	0.24
2076.67	0.44
2077	1.04
2077.33	0.84
2077.65	0.84
2077.98	1.24
2078.3	1.08
2078.63	0.44
2078.95	0.44
2079.28	0.56
2079.61	-0.44
2079.93	-0.48
2080.26	-0.24
2080.58	-0.12
2080.91	-0.04
2081.23	0.88
2081.56	1.24
2081.89	1.04
2082.21	0.96
2082.54	1.2
2082.86	1.16
2083.19	1.12
2083.51	1.28
2083.84	1.24
2084.16	0.8
2084.49	0.52
2084.81	0.4
2085.14	0.28
2085.46	0.4
2085.79	0.48
2086.12	0.56
2086.44	0.36
2086.77	0.48
2087.09	0.92
2087.42	0.84
2087.74	0.8
2088.07	1.72
2088.39	1.6
2088.72	1.48
2089.04	1.52
2089.37	1.48
2089.69	0.96
2090.02	1.2
2090.34	0.36
2090.67	0.8
2090.99	-1.24
2091.32	-1.44
2091.64	-1.64
2091.97	-1.04
2092.29	-1.4
2092.62	0.96
2092.94	0.76
2093.26	0.88
2093.59	1.08
2093.91	-0.12
2094.24	-0.16
2094.56	-0.16
2094.89	0.04
2095.21	-0.36
2095.54	1.16
2095.86	0.88
2096.19	0.92
2096.51	0.48
2096.84	0.68
2097.16	0.36
2097.48	0.6
2097.81	0.72
2098.13	0.92
2098.46	0.32
2098.78	0.24
2099.11	0.16
2099.43	1.44334e-17
2099.75	0
2100.08	0.64
2100.4	0.68
2100.73	0.92
2101.05	0.92
2101.38	0.72
2101.7	1.12
2102.02	1.36
2102.35	0.96
2102.67	1.44
2103	1.44
2103.32	1.24
2103.64	1
2103.97	1.16
2104.29	0.96
2104.62	1.08
2104.94	0.76
2105.26	0.2
2105.59	0.04
2105.91	-0.24
2106.23	-0.32
2106.56	-0.36
2106.88	0.28
2107.21	0.28
2107.53	0.4
2107.85	0.4
2108.18	0.48
2108.5	0.32
2108.82	0.84
2109.15	0.8
2109.47	0.76
2109.79	0.6
2110.12	0.64
2110.44	0.12
2110.76	0.2
2111.09	0.2
2111.41	0.2
2111.73	0.2
2112.06	0.36
2112.38	0.28
2112.7	-0.32
2113.03	-0.32
2113.35	-0.08
2113.67	0.28
2114	0.28
2114.32	0.88
2114.64	1.04
2114.97	0.76
2115.29	0.24
2115.61	0.16
2115.94	0.4
2116.26	0.24
2116.58	0.68
2116.91	0.16
2117.23	0.16
2117.55	0.2
2117.87	0.24
2118.2	-0.2
2118.52	0.4
2118.84	0.52
2119.17	0.28
2119.49	0.24
2119.81	0.24
2120.13	0.28
2120.46	0.2
2120.78	-0.68
2121.1	-0.68
2121.42	-0.44
2121.75	-0.44
2122.07	-0.48
2122.39	0.44
2122.72	0.44
2123.04	0.24
2123.36	0.24
2123.68	0.24
2124.01	0.28
2124.33	0.36
2124.65	0.32
2124.97	0.44
2125.29	0.44
2125.62	0.36
2125.94	0.4
2126.26	0.4
2126.58	0.6
2126.91	-0.32
2127.23	-0.16
2127.55	8.21554e-17
2127.87	0.12
2128.2	-0.28
2128.52	0.64
2128.84	0.44
2129.16	0.4
2129.48	0.44
2129.81	0.52
2130.13	0.52
2130.45	0.52
2130.77	0.28
2131.09	0.12
2131.42	0.08
2131.74	0.28
2132.06	0.48
2132.38	0.52
2132.7	0.52
2133.02	0.56
2133.35	0.52
2133.67	0.56
2133.99	0.52
2134.31	-0.08
2134.63	-0.2
2134.96	-0.16
2135.28	-0.4
2135.6	-0.4
2135.92	0.24
2136.24	0.52
2136.56	0.32
2136.88	0.6
2137.21	0.6
2137.53	0.76
2137.85	0.48
2138.17	0.16
2138.49	-0.12
2138.81	-0.04
2139.13	-0.24
2139.46	-0.12
2139.78	0.6
2140.1	0.84
2140.42	0.92
2140.74	0.92
2141.06	0.88
2141.38	0.48
2141.7	0.36
2142.03	0.2
2142.35	0.2
2142.67	0.72
2142.99	0.72
2143.31	0.6
2143.63	0.6
2143.95	0.6
2144.27	0.08
2144.59	0.08
2144.91	6.66107e-18
2145.24	0.12
2145.56	0.12
2145.88	0.04
2146.2	0.24
2146.52	0.32
2146.84	0.36
2147.16	0.84
2147.48	0.84
2147.8	0.64
2148.12	0.8
2148.44	0.76
2148.76	0.32
2149.08	0.32
2149.41	0.64
2149.73	0.64
2150.05	0.52
2150.37	0.48
2150.69	0.48
2151.01	0.4
2151.33	0.24
2151.65	0.24
2151.97	0.4
2152.29	0.4
2152.61	-0.12
2152.93	-0.12
2153.25	0.16
2153.57	0.44
2153.89	0.44
2154.21	0.32
2154.53	0.32
2154.85	0.04
2155.17	-0.4
2155.49	-0.6
2155.81	-0.2
2156.13	0.52
2156.45	0.72
2156.77	0.72
2157.09	1.4
2157.41	1.48
2157.73	0.88
2158.05	0.84
2158.37	0.84
2158.69	0.52
2159.01	0.44
2159.33	0.4
2159.65	0.28
2159.97	0.28
2160.29	0.12
2160.61	0.2
2160.93	0.2
2161.25	0.16
2161.57	0.16
2161.89	0.2
2162.21	0.24
2162.53	0.16
2162.85	0.08
2163.17	0.2
2163.49	0.52
2163.81	0.64
2164.13	0.64
2164.45	0.16
2164.77	0.04
2165.08	-0.28
2165.4	-0.2
2165.72	-0.04
2166.04	0.52
2166.36	0.52
2166.68	0.48
2167	0.16
2167.32	0.36
2167.64	0.36
2167.96	0.36
2168.28	0.36
2168.6	0.44
2168.92	0.12
2169.24	0.16
2169.55	0.2
2169.87	0.2
2170.19	0.12
2170.51	0.08
2170.83	0.4
2171.15	0.36
2171.47	0.48
2171.79	0.48
2172.11	0.48
2172.43	0.36
2172.74	0.44
2173.06	0.48
2173.38	0.52
2173.7	0.56
2174.02	0.64
2174.34	0.8
2174.66	0.64
2174.98	0.84
2175.29	0.8
2175.61	0.48
2175.93	0.24
2176.25	0.24
2176.57	0
2176.89	0
2177.21	0.08
2177.52	0.76
2177.84	0.84
2178.16	1
2178.48	1.08
2178.8	1
2179.12	0.6
2179.43	0.52
2179.75	-0.28
2180.07	-0.36
2180.39	-0.36
2180.71	-0.56
2181.03	-0.56
2181.34	0.08
2181.66	0.08
2181.98	0.08
2182.3	0.08
2182.62	0.24
2182.93	-0.16
2183.25	4.2189e-17
2183.57	4.2189e-17
2183.89	-0.08
2184.21	-0.04
2184.52	0.6
2184.84	0.44
2185.16	0.44
2185.48	0.64
2185.8	0.92
2186.11	0.8
2186.43	0.8
2186.75	1
2187.07	0.4
2187.39	-0.88
2187.7	-0.96
2188.02	-1.56
2188.34	-1.76
2188.66	-1.16
2188.97	-0.12
2189.29	0.28
2189.61	1.08
2189.93	1.08
2190.24	0.88
2190.56	0.64
2190.88	0.2
2191.2	0
2191.51	0
2191.83	0.16
2192.15	0.16
2192.47	0.16
2192.78	0.4
2193.1	0.4
2193.42	0.36
2193.74	0.36
2194.05	0.36
2194.37	0.12
2194.69	0.52
2195	0.28
2195.32	0.28
2195.64	0.52
2195.96	0.52
2196.27	0.32
2196.59	-0.16
2196.91	-0.16
2197.22	-0.16
2197.54	-0.16
2197.86	-0.24
2198.18	0.36
2198.49	0.44
2198.81	0.24
2199.13	0.28
2199.44	0.16
2199.76	0.24
2200.08	0.2
2200.39	0.2
2200.71	0.2
2201.03	0.2
2201.34	0.28
2201.66	0.24
2201.98	0.2
2202.29	0.2
2202.61	0.28
2202.93	0.2
2203.24	0.6
2203.56	0.64
2203.88	0.6
2204.19	0.52
2204.51	0.72
2204.83	0.84
2205.14	1.04
2205.46	1.04
2205.78	1.04
2206.09	0.76
2206.41	0.04
2206.72	-0.4
2207.04	-0.24
2207.36	-0.6
2207.67	-0.6
2207.99	-0.12
2208.31	0.12
2208.62	-0.04
2208.94	0.36
2209.25	0.4
2209.57	0.2
2209.89	0.28
2210.2	0.28
2210.52	0.32
2210.83	0.36
2211.15	0.44
2211.47	0.56
2211.78	0.56
2212.1	0.2
2212.41	0.12
2212.73	-3.33053e-18
2213.05	-0.24
2213.36	-0.24
2213.68	0.32
2213.99	0.4
2214.31	0.84
2214.62	0.84
2214.94	1.24
2215.26	0.96
2215.57	0.88
2215.89	0.4
2216.2	0.48
2216.52	0.36
2216.83	0.68
2217.15	0.68
2217.46	0.88
2217.78	0.92
2218.1	0.44
2218.41	0.12
2218.73	0.48
2219.04	0.36
2219.36	0.24
2219.67	0.44
2219.99	0.52
2220.3	0.16
2220.62	0.08
2220.93	0.44
2221.25	0.52
2221.56	0.44
2221.88	0.52
2222.19	0.52
2222.51	0.16
2222.82	-1.12
2223.14	-1.12
2223.45	-1.2
2223.77	-1.08
2224.08	-1.08
2224.4	0.12
2224.71	0.12
2225.03	0.12
2225.34	0
2225.66	-1.4
2225.97	-1.36
2226.29	-1.2
2226.6	-1.2
2226.92	-1.2
2227.23	0.2
2227.55	0.16
2227.86	0
2228.18	0
2228.49	0.04
2228.81	0.16
2229.12	0.24
2229.44	0.68
2229.75	0.92
2230.07	0.96
2230.38	0.96
2230.69	0.88
2231.01	0.44
2231.32	0.32
2231.64	0.4
2231.95	0.28
2232.27	0.28
2232.58	0.28
2232.9	0.36
2233.21	0.2
2233.52	0.2
2233.84	0.28
2234.15	0.28
2234.47	0.32
2234.78	0.68
2235.1	0.72
2235.41	0.92
2235.72	0.96
2236.04	0.72
2236.35	0.48
2236.67	-0.16
2236.98	-0.44
2237.29	-0.4
2237.61	-0.4
2237.92	-0.52
2238.24	0.12
2238.55	0.12
2238.86	0.08
2239.18	0.12
2239.49	0.04
2239.8	2.88669e-17
2240.12	0.08
2240.43	0.04
2240.75	0.2
2241.06	0.28
2241.37	0.28
2241.69	0.2
2242	0.36
2242.31	0.24
2242.63	0.36
2242.94	0.36
2243.26	-0.24
2243.57	-0.08
2243.88	1.44334e-17
2244.2	-0.12
2244.51	-0.12
2244.82	0.48
2245.14	0.16
2245.45	0
2245.76	0.24
2246.08	0.24
2246.39	0.24
2246.7	0.44
2247.02	0.44
2247.33	0.2
2247.64	0.2
2247.96	0.2
2248.27	0.12
2248.58	-0.84
2248.9	-0.84
2249.21	-0.64
2249.52	-0.64
2249.83	-0.76
2250.15	0.72
2250.46	0.72
2250.77	0.6
2251.09	0.68
2251.4	0.68
2251.71	0.16
2252.03	0.16
2252.34	0.12
2252.65	0.12
2252.96	0.16
2253.28	0.16
2253.59	0.28
2253.9	0.4
2254.21	0.44
2254.53	0.4
2254.84	0.08
2255.15	0.04
2255.47	-0.12
2255.78	-0.24
2256.09	-0.24
2256.4	0.08
2256.72	0
2257.03	0.2
2257.34	0.6
2257.65	0.68
2257.97	0.8
2258.28	0.8
2258.59	1
2258.9	0.6
2259.22	0.68
2259.53	0.56
2259.84	0.56
2260.15	0.48
2260.46	0.48
2260.78	0.44
2261.09	0.48
2261.4	0.48
2261.71	0.52
2262.03	0.52
2262.34	0.88
2262.65	0.96
2262.96	1.28
2263.27	0.96
2263.59	0.96
2263.9	0.48
2264.21	0.48
2264.52	0.16
2264.83	0.12
2265.15	0.12
2265.46	0.28
2265.77	0.32
2266.08	0.32
2266.39	0.56
2266.7	0.56
2267.02	0.4
2267.33	-0.16
2267.64	0.2
2267.95	-0.04
2268.26	0.12
2268.57	0.12
2268.89	0.6
2269.2	0.32
2269.51	0.68
2269.82	0.52
2270.13	0.52
2270.44	0.44
2270.76	-0.04
2271.07	-0.4
2271.38	-0.96
2271.69	-0.96
2272	-0.96
2272.31	-0.76
2272.62	-1.56
2272.93	-0.84
2273.25	-0.56
2273.56	-0.56
2273.87	-0.32
2274.18	0.56
2274.49	0.44
2274.8	0.28
2275.11	0.28
2275.42	0.24
2275.74	0.32
2276.05	0.48
2276.36	0.36
2276.67	0.48
2276.98	0.48
2277.29	0.32
2277.6	0.12
2277.91	0.12
2278.22	-0.4
2278.53	-0.4
2278.85	-0.4
2279.16	-1.36
2279.47	-1.36
2279.78	-0.72
2280.09	-0.72
2280.4	-0.72
2280.71	0.24
2281.02	0.24
2281.33	0
2281.64	0
2281.95	0
2282.26	0
2282.57	0
2282.88	0.16
2283.19	0.2
2283.5	0.32
2283.82	0.32
2284.13	0.44
2284.44	0.28
2284.75	-0.24
2285.06	-0.32
2285.37	-0.32
2285.68	-0.36
2285.99	-0.36
2286.3	0.12
2286.61	0.08
2286.92	0.08
2287.23	0.08
2287.54	0.32
2287.85	0.32
2288.16	0.32
2288.47	0.32
2288.78	0.24
2289.09	0
2289.4	0.04
2289.71	0.04
2290.02	0.04
2290.33	0.44
2290.64	0.44
2290.95	0.2
2291.26	0.2
2291.57	0.2
2291.88	-0.6
2292.19	-0.6
2292.5	-0.4
2292.81	-0.4
2293.12	-0.4
2293.43	0
2293.74	0
2294.05	0
2294.36	0
2294.67	0
2294.98	0
2295.29	0
2295.6	0
2295.91	0
2296.21	0
2296.52	0
2296.83	0
2297.14	0
2297.45	0
2297.76	0
2298.07	0
2298.38	0
2298.69	0
2299	0
2299.31	0
2299.62	0
2299.93	0
2300.24	0
2300.55	0
2300.85	0
2301.16	0
2301.47	0
2301.78	0
2302.09	0
2302.4	0
2302.71	0
2303.02	0
2303.33	0
2303.64	0
2303.94	0
2304.25	0
2304.56	0
2304.87	0
2305.18	0
2305.49	0
2305.8	0
2306.11	0
2306.42	0
2306.72	0
2307.03	0
2307.34	0
2307.65	0
2307.96	0
2308.27	0
2308.58	0
2308.88	0
2309.19	0
2309.5	0
2309.81	0
2310.12	0
2310.43	0
2310.74	0
2311.04	0
2311.35	0
2311.66	0
2311.97	0
2312.28	0
2312.59	0
2312.89	0
2313.2	0
2313.51	0
2313.82	0
2314.13	0
2314.43	0
2314.74	0
2315.05	0
2315.36	0
2315.67	0
2315.97	0
2316.28	0
2316.59	0
2316.9	0
2317.21	0
2317.51	0
2317.82	0
2318.13	0
2318.44	0
2318.75	0
2319.05	0
2319.36	0
2319.67	0
2319.98	0
2320.28	0
2320.59	0
2320.9	0
2321.21	0
2321.51	0
2321.82	0
2322.13	0
2322.44	0
2322.74	0
2323.05	0
2323.36	0
2323.67	0
2323.97	0
2324.28	0
2324.59	0
2324.9	0
2325.2	0
2325.51	0
2325.82	0
2326.13	0
2326.43	0
2326.74	0
2327.05	0
2327.35	0
2327.66	0
2327.97	0
2328.27	0
2328.58	0
2328.89	0
2329.2	0
2329.5	0
2329.81	0
2330.12	0
2330.42	0
2330.73	0
2331.04	0
2331.34	0
2331.65	0
2331.96	0
2332.26	0
2332.57	0
2332.88	0
2333.18	0
2333.49	0
2333.8	0
2334.1	0
2334.41	0
2334.72	0
2335.02	0
2335.33	0
2335.64	0
2335.94	0
2336.25	0
2336.56	0
2336.86	0
2337.17	0
2337.48	0
2337.78	0
2338.09	0
2338.39	0
2338.7	0
2339.01	0
2339.31	0
2339.62	0
2339.93	0
2340.23	0
2340.54	0
2340.84	0
2341.15	0
2341.46	0
2341.76	0
2342.07	0
2342.37	0
2342.68	0
2342.99	0
2343.29	0
2343.6	0
2343.9	0
2344.21	0
2344.51	0
2344.82	0
2345.13	0
2345.43	0
2345.74	0
2346.04	0
2346.35	0
2346.65	0
2346.96	0
2347.27	0
2347.57	0
2347.88	0
2348.18	0
2348.49	0
2348.79	0
2349.1	0
2349.4	0
2349.71	0
2350.01	0
2350.32	0
2350.63	0
2350.93	0
2351.24	0
2351.54	0
2351.85	0
2352.15	0
2352.46	0
2352.76	0
2353.07	0
2353.37	0
2353.68	0
2353.98	0
2354.29	0
2354.59	0
2354.9	0
2355.2	0
2355.51	0
2355.81	0
2356.12	0
2356.42	0
2356.73	0
2357.03	0
2357.34	0
2357.64	0
2357.95	0
2358.25	0
2358.55	0
2358.86	0
2359.16	0
2359.47	0
2359.77	0
2360.08	0
2360.38	0
2360.69	0
2360.99	0
2361.3	0
2361.6	0
2361.9	0
2362.21	0
2362.51	0
2362.82	0
2363.12	0
2363.43	0
2363.73	0
2364.04	0
2364.34	0
2364.64	0
2364.95	0
2365.25	0
2365.56	0
2365.86	0
2366.16	0
2366.47	0
2366.77	0
2367.08	0
2367.38	0
2367.68	0
2367.99	0
2368.29	0
2368.6	0
2368.9	0
2369.2	0
2369.51	0
2369.81	0
2370.12	0
2370.42	0
2370.72	0
2371.03	0
2371.33	0
2371.63	0
2371.94	0
2372.24	0
2372.55	0
2372.85	0
2373.15	0
2373.46	0
2373.76	0
2374.06	0
2374.37	0
2374.67	0
2374.97	0
2375.28	0
2375.58	0
2375.88	0
2376.19	0
2376.49	0
2376.79	0
2377.1	0
2377.4	0
2377.7	0
2378.01	0
2378.31	0
2378.61	0
2378.92	0
2379.22	0
2379.52	0
2379.82	0
2380.13	0
2380.43	0
2380.73	0
2381.04	0
2381.34	0
2381.64	0
2381.95	0
2382.25	0
2382.55	0
2382.85	0
2383.16	0
2383.46	0
2383.76	0
2384.06	0
2384.37	0
2384.67	0
2384.97	0
2385.28	0
2385.58	0
2385.88	0
2386.18	0
2386.49	0
2386.79	0
2387.09	0
2387.39	0
2387.69	0
2388	0
2388.3	0
2388.6	0
2388.9	0
2389.21	0
2389.51	0
2389.81	0
2390.11	0
2390.42	0
2390.72	0
2391.02	0
2391.32	0
2391.62	0
2391.93	0
2392.23	0
2392.53	0
2392.83	0
2393.13	0
2393.44	0
2393.74	0
2394.04	0
2394.34	0
2394.64	0
2394.95	0
2395.25	0
2395.55	0
2395.85	0
2396.15	0
2396.45	0
2396.76	0
2397.06	0
2397.36	0
2397.66	0
2397.96	0
2398.26	0
2398.57	0
2398.87	0
2399.17	0
2399.47	0
2399.77	0
2400.07	0
2400.37	0
2400.68	0
2400.98	0
2401.28	0
2401.58	0
2401.88	0
2402.18	0
2402.48	0
2402.79	0
2403.09	0
2403.39	0
2403.69	0
2403.99	0
2404.29	0
2404.59	0
2404.89	0
2405.19	0
2405.5	0
2405.8	0
2406.1	0
2406.4	0
2406.7	0
2407	0
2407.3	0
2407.6	0
2407.9	0
2408.2	0
2408.5	0
2408.8	0
2409.11	0
2409.41	0
2409.71	0
2410.01	0
2410.31	0
2410.61	0
2410.91	0
2411.21	0
2411.51	0
2411.81	0
2412.11	0
2412.41	0
2412.71	0
2413.01	0
2413.31	0
2413.61	0
2413.91	0
2414.21	0
2414.51	0
2414.81	0
2415.12	0
2415.42	0
2415.72	0
2416.02	0
2416.32	0
2416.62	0
2416.92	0
2417.22	0
2417.52	0
2417.82	0
2418.12	0
2418.42	0
2418.72	0
2419.02	0
2419.32	0
2419.62	0
2419.92	0
2420.22	0
2420.52	0
2420.82	0
2421.12	0
2421.42	0
2421.71	0
2422.01	0
2422.31	0
2422.61	0
2422.91	0
2423.21	0
2423.51	0
2423.81	0
2424.11	0
2424.41	0
2424.71	0
2425.01	0
2425.31	0
2425.61	0
2425.91	0
2426.21	0
2426.51	0
2426.81	0
2427.11	0
2427.41	0
2427.7	0
2428	0
2428.3	0
2428.6	0
2428.9	0
2429.2	0
2429.5	0
2429.8	0
2430.1	0
2430.4	0
2430.7	0
2430.99	0
2431.29	0
2431.59	0
2431.89	0
2432.19	0
2432.49	0
2432.79	0
2433.09	0
2433.39	0
2433.68	0
2433.98	0
2434.28	0
2434.58	0
2434.88	0
2435.18	0
2435.48	0
2435.78	0
2436.07	0
2436.37	0
2436.67	0
2436.97	0
2437.27	0
2437.57	0
2437.86	0
2438.16	0
2438.46	0
2438.76	0
2439.06	0
2439.36	0
2439.66	0
2439.95	0
2440.25	0
2440.55	0
2440.85	0
2441.15	0
2441.44	0
2441.74	0
2442.04	0
2442.34	0
2442.64	0
2442.93	0
2443.23	0
2443.53	0
2443.83	0
2444.13	0
2444.42	0
2444.72	0
2445.02	0
2445.32	0
2445.62	0
2445.91	0
2446.21	0
2446.51	0
2446.81	0
2447.1	0
2447.4	0
2447.7	0
2448	0
2448.3	0
2448.59	0
2448.89	0
2449.19	0
2449.49	0
2449.78	0
2450.08	0
2450.38	0
2450.68	0
2450.97	0
2451.27	0
2451.57	0
2451.87	0
2452.16	0
2452.46	0
2452.76	0
2453.05	0
2453.35	0
2453.65	0
2453.95	0
2454.24	0
2454.54	0
2454.84	0
2455.13	0
2455.43	0
2455.73	0
2456.03	0
2456.32	0
2456.62	0
2456.92	0
2457.21	0
2457.51	0
2457.81	0
2458.1	0
2458.4	0
2458.7	0
2458.99	0
2459.29	0
2459.59	0
2459.88	0
2460.18	0
2460.48	0
2460.77	0
2461.07	0
2461.37	0
2461.66	0
2461.96	0
2462.26	0
2462.55	0
2462.85	0
2463.15	0
2463.44	0
2463.74	0
2464.04	0
2464.33	0
2464.63	0
2464.92	0
2465.22	0
2465.52	0
2465.81	0
2466.11	0
2466.41	0
2466.7	0
2467	0
2467.29	0
2467.59	0
2467.89	0
2468.18	0
2468.48	0
2468.77	0
2469.07	0
2469.37	0
2469.66	0
2469.96	0
2470.25	0
2470.55	0
2470.84	0
2471.14	0
2471.44	0
2471.73	0
2472.03	0
2472.32	0
2472.62	0
2472.91	0
2473.21	0
2473.51	0
2473.8	0
2474.1	0
2474.39	0
2474.69	0
2474.98	0
2475.28	0
2475.57	0
2475.87	0
2476.17	0
2476.46	0
2476.76	0
2477.05	0
2477.35	0
2477.64	0
2477.94	0
2478.23	0
2478.53	0
2478.82	0
2479.12	0
2479.41	0
2479.71	0
2480	0
2480.3	0
2480.59	0
2480.89	0
2481.18	0
2481.48	0
2481.77	0
2482.07	0
2482.36	0
2482.66	0
2482.95	0
2483.25	0
2483.54	0
2483.84	0
2484.13	0
2484.43	0
2484.72	0
2485.02	0
2485.31	0
2485.6	0
2485.9	0
2486.19	0
2486.49	0
2486.78	0
2487.08	0
2487.37	0
2487.67	0
2487.96	0
2488.26	0
2488.55	0
2488.84	0
2489.14	0
2489.43	0
2489.73	0
2490.02	0
2490.32	0
2490.61	0
2490.9	0
2491.2	0
2491.49	0
2491.79	0
2492.08	0
2492.37	0
2492.67	0
2492.96	0
2493.26	0
2493.55	0
2493.84	0
2494.14	0
2494.43	0
2494.73	0
2495.02	0
2495.31	0
2495.61	0
2495.9	0
2496.2	0
2496.49	0
2496.78	0
2497.08	0
2497.37	0
2497.66	0
2497.96	0
2498.25	0
2498.54	0
2498.84	0
2499.13	0
2499.43	0
2499.72	0
2500.01	0
2500.31	0
2500.6	0
2500.89	0
2501.19	0
2501.48	0
2501.77	0
2502.07	0
2502.36	0
2502.65	0
2502.95	0
2503.24	0
2503.53	0
2503.82	0
2504.12	0
2504.41	0
2504.7	0
2505	0
2505.29	0
2505.58	0
2505.88	0
2506.17	0
2506.46	0
2506.76	0
2507.05	0
2507.34	0
2507.63	0
2507.93	0
2508.22	0
2508.51	0
2508.8	0
2509.1	0
2509.39	0
2509.68	0
2509.98	0
2510.27	0
2510.56	0
2510.85	0
2511.15	0
2511.44	0
2511.73	0
2512.02	0
2512.32	0
2512.61	0
2512.9	0
2513.19	0
2513.49	0
2513.78	0
2514.07	0
2514.36	0
2514.65	0
2514.95	0
2515.24	0
2515.53	0
2515.82	0
2516.12	0
2516.41	0
2516.7	0
2516.99	0
2517.28	0
2517.58	0
2517.87	0
2518.16	0
2518.45	0
2518.74	0
2519.04	0
2519.33	0
2519.62	0
2519.91	0
2520.2	0
2520.5	0
2520.79	0
2521.08	0
2521.37	0
2521.66	0
2521.95	0
2522.25	0
2522.54	0
2522.83	0
2523.12	0
2523.41	0
2523.7	0
2523.99	0
2524.29	0
2524.58	0
2524.87	0
2525.16	0
2525.45	0
2525.74	0
2526.03	0
2526.33	0
2526.62	0
2526.91	0
2527.2	0
2527.49	0
2527.78	0
2528.07	0
2528.36	0
2528.66	0
2528.95	0
2529.24	0
2529.53	0
2529.82	0
2530.11	0
2530.4	0
2530.69	0
2530.98	0
2531.27	0
2531.57	0
2531.86	0
2532.15	0
2532.44	0
2532.73	0
2533.02	0
2533.31	0
2533.6	0
2533.89	0
2534.18	0
2534.47	0
2534.76	0
2535.05	0
2535.35	0
2535.64	0
2535.93	0
2536.22	0
2536.51	0
2536.8	0
2537.09	0
2537.38	0
2537.67	0
2537.96	0
2538.25	0
2538.54	0
2538.83	0
2539.12	0
2539.41	0
2539.7	0
2539.99	0
2540.28	0
2540.57	0
2540.86	0
2541.15	0
2541.44	0
2541.73	0
2542.02	0
2542.31	0
2542.6	0
2542.89	0
2543.18	0
2543.47	0
2543.76	0
2544.05	0
2544.34	0
2544.63	0
2544.92	0
2545.21	0
2545.5	0
2545.79	0
2546.08	0
2546.37	0
2546.66	0
2546.95	0
2547.24	0
2547.53	0
2547.82	0
2548.11	0
2548.4	0
2548.69	0
2548.98	0
2549.27	0
2549.55	0
2549.84	0
2550.13	0
2550.42	0
2550.71	0
2551	0
2551.29	0
2551.58	0
2551.87	0
2552.16	0
2552.45	0
2552.74	0
2553.03	0
2553.31	0
2553.6	0
2553.89	0
2554.18	0
2554.47	0
2554.76	0
2555.05	0
2555.34	0
2555.63	0
2555.92	0
2556.2	0
2556.49	0
2556.78	0
2557.07	0
2557.36	0
2557.65	0
2557.94	0
2558.23	0
2558.51	0
2558.8	0
2559.09	0
2559.38	0
2559.67	0
2559.96	0
2560.25	0
2560.53	0
2560.82	0
2561.11	0
2561.4	0
2561.69	0
2561.98	0
2562.27	0
2562.55	0
2562.84	0
2563.13	0
2563.42	0
2563.71	0
2564	0
2564.28	0
2564.57	0
2564.86	0
2565.15	0
2565.44	0
2565.72	0
2566.01	0
2566.3	0
2566.59	0
2566.88	0
2567.16	0
2567.45	0
2567.74	0
2568.03	0
2568.32	0
2568.6	0
2568.89	0
2569.18	0
2569.47	0
2569.75	0

