Source: Spectrum Viewer

Chart: Pulse Spectrum

Series: 
Wavelength (nm)	S (a.u.)
1179.9	0
1180.29	0
1180.68	0
1181.06	0
1181.45	0
1181.83	0
1182.22	0
1182.6	0
1182.99	0
1183.38	0
1183.76	0
1184.15	0
1184.53	0
1184.92	0
1185.3	0
1185.69	0
1186.07	0
1186.46	0
1186.85	0
1187.23	0
1187.62	0
1188	0
1188.39	0
1188.77	0
1189.16	0
1189.54	0
1189.93	0
1190.31	0
1190.7	0
1191.08	0
1191.47	0
1191.85	0
1192.24	0
1192.62	0
1193.01	0
1193.39	0
1193.78	0
1194.16	0
1194.55	0
1194.93	0
1195.32	0
1195.7	0
1196.09	0
1196.47	0
1196.86	0
1197.24	0
1197.63	0
1198.01	0
1198.4	0
1198.78	0
1199.16	0
1199.55	0
1199.93	0
1200.32	0
1200.7	0
1201.09	0
1201.47	0
1201.86	0
1202.24	0
1202.63	0
1203.01	0
1203.39	0
1203.78	0
1204.16	0
1204.55	0
1204.93	0
1205.32	0
1205.7	0
1206.08	0
1206.47	0
1206.85	0
1207.24	0
1207.62	0
1208	0
1208.39	0
1208.77	0
1209.16	0
1209.54	0
1209.92	0
1210.31	0
1210.69	0
1211.08	0
1211.46	0
1211.84	0
1212.23	0
1212.61	0
1213	0
1213.38	0
1213.76	0
1214.15	0
1214.53	0
1214.91	0
1215.3	0
1215.68	0
1216.06	0
1216.45	0
1216.83	0
1217.22	0
1217.6	0
1217.98	0
1218.37	0
1218.75	0
1219.13	0
1219.52	0
1219.9	0
1220.28	0
1220.67	0
1221.05	0
1221.43	0
1221.82	0
1222.2	0
1222.58	0
1222.97	0
1223.35	0
1223.73	0
1224.11	0
1224.5	0
1224.88	0
1225.26	0
1225.65	0
1226.03	0
1226.41	0
1226.8	0
1227.18	0
1227.56	0
1227.94	0
1228.33	0
1228.71	0
1229.09	0
1229.47	0
1229.86	0
1230.24	0
1230.62	0
1231.01	0
1231.39	0
1231.77	0
1232.15	0
1232.54	0
1232.92	0
1233.3	0
1233.68	0
1234.07	0
1234.45	0
1234.83	0
1235.21	0
1235.6	0
1235.98	0
1236.36	0
1236.74	0
1237.12	0
1237.51	0
1237.89	0
1238.27	0
1238.65	0
1239.04	0
1239.42	0
1239.8	0
1240.18	0
1240.56	0
1240.95	0
1241.33	0
1241.71	0
1242.09	0
1242.47	0
1242.86	0
1243.24	0
1243.62	0
1244	0
1244.38	0
1244.77	0
1245.15	0
1245.53	0
1245.91	0
1246.29	0
1246.67	0
1247.06	0
1247.44	0
1247.82	0
1248.2	0
1248.58	0
1248.96	0
1249.34	0
1249.73	0
1250.11	0
1250.49	0
1250.87	0
1251.25	0
1251.63	0
1252.01	0
1252.4	0
1252.78	0
1253.16	0
1253.54	0
1253.92	0
1254.3	0
1254.68	0
1255.06	0
1255.45	0
1255.83	0
1256.21	0
1256.59	0
1256.97	0
1257.35	0
1257.73	0
1258.11	0
1258.49	0
1258.87	0
1259.26	0
1259.64	0
1260.02	0
1260.4	0
1260.78	0
1261.16	0
1261.54	0
1261.92	0
1262.3	0
1262.68	0
1263.06	0
1263.44	0
1263.82	0
1264.21	0
1264.59	0
1264.97	0
1265.35	0
1265.73	0
1266.11	0
1266.49	0
1266.87	0
1267.25	0
1267.63	0
1268.01	0
1268.39	0
1268.77	0
1269.15	0
1269.53	0
1269.91	0
1270.29	0
1270.67	0
1271.05	0
1271.43	0
1271.81	0
1272.19	0
1272.57	0
1272.95	0
1273.33	0
1273.71	0
1274.09	0
1274.47	0
1274.85	0
1275.23	0
1275.61	0
1275.99	0
1276.37	0
1276.75	0
1277.13	0
1277.51	0
1277.89	0
1278.27	0
1278.65	0
1279.03	0
1279.41	0
1279.79	0
1280.17	0
1280.55	0
1280.93	0
1281.31	0
1281.69	0
1282.07	0
1282.45	0
1282.82	0
1283.2	0
1283.58	0
1283.96	0
1284.34	0
1284.72	0
1285.1	0
1285.48	0
1285.86	0
1286.24	0
1286.62	0
1287	0
1287.38	0
1287.75	0
1288.13	0
1288.51	0
1288.89	0
1289.27	0
1289.65	0
1290.03	0
1290.41	0
1290.79	0
1291.17	0
1291.54	0
1291.92	0
1292.3	0
1292.68	0
1293.06	0
1293.44	0
1293.82	0
1294.2	0
1294.57	0
1294.95	0
1295.33	0
1295.71	0
1296.09	0
1296.47	0
1296.85	0
1297.22	0
1297.6	0
1297.98	0
1298.36	0
1298.74	0
1299.12	0
1299.5	0
1299.87	0
1300.25	0
1300.63	0
1301.01	0
1301.39	0
1301.77	0
1302.14	0
1302.52	0
1302.9	0
1303.28	0
1303.66	0
1304.03	0
1304.41	0
1304.79	0
1305.17	0
1305.55	0
1305.92	0
1306.3	0
1306.68	0
1307.06	0
1307.44	0
1307.81	0
1308.19	0
1308.57	0
1308.95	0
1309.32	0
1309.7	0
1310.08	0
1310.46	0
1310.84	0
1311.21	0
1311.59	0
1311.97	0
1312.35	0
1312.72	0
1313.1	0
1313.48	0
1313.86	0
1314.23	0
1314.61	0
1314.99	0
1315.37	0
1315.74	0
1316.12	0
1316.5	0
1316.87	0
1317.25	0
1317.63	0
1318.01	0
1318.38	0
1318.76	0
1319.14	0
1319.52	0
1319.89	0
1320.27	0
1320.65	0
1321.02	0
1321.4	0
1321.78	0
1322.15	0
1322.53	0
1322.91	0
1323.29	0
1323.66	0
1324.04	0
1324.42	0
1324.79	0
1325.17	0
1325.55	0
1325.92	0
1326.3	0
1326.68	0
1327.05	0
1327.43	0
1327.81	0
1328.18	0
1328.56	0
1328.94	0
1329.31	0
1329.69	0
1330.06	0
1330.44	0
1330.82	0
1331.19	0
1331.57	0
1331.95	0
1332.32	0
1332.7	0
1333.08	0
1333.45	0
1333.83	0
1334.2	0
1334.58	0
1334.96	0
1335.33	0
1335.71	0
1336.08	0
1336.46	0
1336.84	0
1337.21	0
1337.59	0
1337.96	0
1338.34	0
1338.72	0
1339.09	0
1339.47	0
1339.84	0
1340.22	0
1340.6	0
1340.97	0
1341.35	0
1341.72	0
1342.1	0
1342.47	0
1342.85	0
1343.23	0
1343.6	0
1343.98	0
1344.35	0
1344.73	0
1345.1	0
1345.48	0
1345.85	0
1346.23	0
1346.61	0
1346.98	0
1347.36	0
1347.73	0
1348.11	0
1348.48	0
1348.86	0
1349.23	0
1349.61	0
1349.98	0
1350.36	0
1350.73	0
1351.11	0
1351.48	0
1351.86	0
1352.23	0
1352.61	0
1352.98	0
1353.36	0
1353.73	0
1354.11	0
1354.48	0
1354.86	0
1355.23	0
1355.61	0
1355.98	0
1356.36	0
1356.73	0
1357.11	0
1357.48	0
1357.86	0
1358.23	0
1358.61	0
1358.98	0
1359.35	0
1359.73	0
1360.1	0
1360.48	0
1360.85	0
1361.23	0
1361.6	0
1361.98	0
1362.35	0
1362.72	0
1363.1	0
1363.47	0
1363.85	0
1364.22	0
1364.6	0
1364.97	0
1365.34	0
1365.72	0
1366.09	0
1366.47	0
1366.84	0
1367.22	0
1367.59	0
1367.96	0
1368.34	0
1368.71	0
1369.09	0
1369.46	-0.88
1369.83	-0.88
1370.21	-0.88
1370.58	-0.88
1370.96	-0.88
1371.33	0.04
1371.7	0.08
1372.08	0.24
1372.45	0.48
1372.82	0.48
1373.2	0.64
1373.57	0.64
1373.95	0.48
1374.32	0.28
1374.69	0.28
1375.07	0.08
1375.44	0.08
1375.81	0.08
1376.19	0.04
1376.56	0.04
1376.93	0.04
1377.31	0
1377.68	0.12
1378.05	0.12
1378.43	0.12
1378.8	0.12
1379.17	0.12
1379.55	0
1379.92	0
1380.29	0
1380.67	0.08
1381.04	0.12
1381.41	0.12
1381.79	0.12
1382.16	0.12
1382.53	0.32
1382.91	-0.72
1383.28	-0.72
1383.65	-0.72
1384.03	-0.56
1384.4	-0.84
1384.77	0.16
1385.14	0.24
1385.52	0.24
1385.89	0.08
1386.26	0.08
1386.64	0.08
1387.01	0.08
1387.38	0.08
1387.75	0.28
1388.13	0.28
1388.5	0.28
1388.87	0.32
1389.25	0.44
1389.62	0.04
1389.99	-1.33221e-17
1390.36	-1.33221e-17
1390.74	-0.08
1391.11	0.2
1391.48	0.4
1391.85	0.52
1392.23	0.52
1392.6	0.48
1392.97	0.08
1393.34	0.28
1393.72	0.2
1394.09	0.24
1394.46	0.44
1394.83	0.44
1395.21	0.32
1395.58	0.44
1395.95	0.4
1396.32	0.2
1396.69	0.2
1397.07	0.12
1397.44	0
1397.81	0.08
1398.18	0.4
1398.55	0.4
1398.93	0.4
1399.3	0.64
1399.67	0.56
1400.04	0.28
1400.41	0.4
1400.79	0.4
1401.16	0.16
1401.53	0.16
1401.9	0.12
1402.27	0
1402.65	0
1403.02	0.16
1403.39	0.16
1403.76	-0.24
1404.13	-0.24
1404.51	-0.24
1404.88	-0.4
1405.25	-0.4
1405.62	0.12
1405.99	0.12
1406.36	0.12
1406.74	0.12
1407.11	0.12
1407.48	0
1407.85	-1.2
1408.22	-1.2
1408.59	-1.2
1408.96	-0.96
1409.34	-0.68
1409.71	0.64
1410.08	1.12
1410.45	1.4
1410.82	1.6
1411.19	1.64
1411.56	1.52
1411.93	1.08
1412.31	0.8
1412.68	0.36
1413.05	0.16
1413.42	0.16
1413.79	0.12
1414.16	-0.08
1414.53	-0.04
1414.9	-0.36
1415.27	-0.28
1415.65	-0.28
1416.02	-0.08
1416.39	-0.12
1416.76	0.08
1417.13	0.04
1417.5	0.04
1417.87	0.04
1418.24	0.04
1418.61	0.04
1418.98	0
1419.35	0
1419.73	0.12
1420.1	0.24
1420.47	0.36
1420.84	0.36
1421.21	0.36
1421.58	0.24
1421.95	0.12
1422.32	0.04
1422.69	0.04
1423.06	0.16
1423.43	0.16
1423.8	0.16
1424.17	0.36
1424.54	0.36
1424.91	0.24
1425.28	0.24
1425.65	0.24
1426.02	0
1426.39	0
1426.76	-0.24
1427.14	-0.24
1427.51	-0.2
1427.88	-0.2
1428.25	-0.2
1428.62	0.04
1428.99	0.12
1429.36	0.2
1429.73	0.44
1430.1	0.48
1430.47	0.52
1430.84	0.52
1431.21	0.48
1431.58	0.6
1431.95	0.6
1432.32	0.36
1432.69	0.28
1433.06	0.28
1433.43	-0.08
1433.8	-0.12
1434.17	0.08
1434.54	0.08
1434.91	0
1435.28	0
1435.64	0.16
1436.01	-0.44
1436.38	-0.36
1436.75	-0.36
1437.12	-0.36
1437.49	-0.48
1437.86	0.2
1438.23	0.12
1438.6	0.12
1438.97	0.24
1439.34	0.24
1439.71	0.16
1440.08	0.16
1440.45	0.16
1440.82	-0.28
1441.19	-0.16
1441.56	-1.33221e-17
1441.93	-1.33221e-17
1442.3	0.08
1442.67	-1.04
1443.03	-1.2
1443.4	-1.32
1443.77	-1.32
1444.14	-1.4
1444.51	0.04
1444.88	0.04
1445.25	0.12
1445.62	0.16
1445.99	0.36
1446.36	0.44
1446.73	0.44
1447.09	0.32
1447.46	0.48
1447.83	0.32
1448.2	0.24
1448.57	0.24
1448.94	0.44
1449.31	0.28
1449.68	0.24
1450.05	0.32
1450.41	0.32
1450.78	-0.28
1451.15	-0.32
1451.52	-0.32
1451.89	-0.4
1452.26	-0.32
1452.63	0.08
1453	0.08
1453.36	0.08
1453.73	0.08
1454.1	0.04
1454.47	0.04
1454.84	0.04
1455.21	0.08
1455.57	-0.32
1455.94	-0.32
1456.31	-0.32
1456.68	-0.28
1457.05	-0.32
1457.42	0.12
1457.78	0.08
1458.15	0.24
1458.52	0.2
1458.89	0.2
1459.26	0.16
1459.63	0.16
1459.99	0
1460.36	0
1460.73	0.08
1461.1	0.08
1461.47	0.08
1461.83	0.4
1462.2	0.4
1462.57	0.32
1462.94	0.32
1463.31	0.64
1463.67	0.4
1464.04	0.2
1464.41	0.2
1464.78	-0.4
1465.15	-0.64
1465.51	-0.72
1465.88	-0.28
1466.25	-0.2
1466.62	0.52
1466.98	0.44
1467.35	0.44
1467.72	0.28
1468.09	0.2
1468.46	0.08
1468.82	0.08
1469.19	0.36
1469.56	0.32
1469.93	0.32
1470.29	0.32
1470.66	0.32
1471.03	0.04
1471.4	0.16
1471.76	0.16
1472.13	0.16
1472.5	0.16
1472.86	0.32
1473.23	0.16
1473.6	0.4
1473.97	0.44
1474.33	0.44
1474.7	0.28
1475.07	0.28
1475.44	0.04
1475.8	-0.2
1476.17	-0.2
1476.54	-0.2
1476.9	-0.2
1477.27	-0.04
1477.64	0.28
1478	0.32
1478.37	0.44
1478.74	0.52
1479.11	0.36
1479.47	0.24
1479.84	0.28
1480.21	0.2
1480.57	0.2
1480.94	0.56
1481.31	0.56
1481.67	0.48
1482.04	0.48
1482.41	0.4
1482.77	0.04
1483.14	0.12
1483.51	0.12
1483.87	0.2
1484.24	0.2
1484.61	0.2
1484.97	0.16
1485.34	0.28
1485.71	-0.84
1486.07	-0.84
1486.44	-0.84
1486.81	-0.8
1487.17	-0.92
1487.54	0.08
1487.9	0.08
1488.27	0.12
1488.64	0.04
1489	0.04
1489.37	0.28
1489.74	0.28
1490.1	0.52
1490.47	0.56
1490.83	0.56
1491.2	0.32
1491.57	0.4
1491.93	0.16
1492.3	0.12
1492.66	0.12
1493.03	0.12
1493.4	0.12
1493.76	0.2
1494.13	0.24
1494.49	0.28
1494.86	0.6
1495.23	0.52
1495.59	0.4
1495.96	-0.76
1496.32	-0.72
1496.69	-1.04
1497.06	-1.04
1497.42	-1.76
1497.79	-0.64
1498.15	-0.6
1498.52	-0.6
1498.88	-0.6
1499.25	0.12
1499.62	-0.28
1499.98	-0.4
1500.35	-0.4
1500.71	-0.36
1501.08	-0.36
1501.44	0.16
1501.81	0.16
1502.17	0.16
1502.54	0.12
1502.9	0.32
1503.27	0.2
1503.64	0.2
1504	0.2
1504.37	0.24
1504.73	0.04
1505.1	0.04
1505.46	0.04
1505.83	0.04
1506.19	0
1506.56	0
1506.92	0.08
1507.29	0.08
1507.65	0.08
1508.02	0.12
1508.38	0.16
1508.75	0.12
1509.11	0.12
1509.48	0.12
1509.84	0.08
1510.21	0.16
1510.57	0.6
1510.94	0.6
1511.3	0.6
1511.67	0.6
1512.03	0.48
1512.4	0
1512.76	0
1513.13	-1
1513.49	-0.96
1513.85	-0.76
1514.22	-0.76
1514.58	-0.76
1514.95	0.24
1515.31	0.2
1515.68	0.08
1516.04	0.36
1516.41	0.36
1516.77	0.36
1517.14	0.36
1517.5	0.28
1517.86	0.2
1518.23	0.2
1518.59	0.28
1518.96	0.36
1519.32	0.36
1519.69	0.16
1520.05	0.16
1520.41	0.08
1520.78	0.04
1521.14	0.44
1521.51	0.52
1521.87	0.52
1522.24	0.56
1522.6	0.76
1522.96	0.36
1523.33	0.28
1523.69	0.44
1524.06	0.52
1524.42	0.28
1524.78	0.28
1525.15	0.32
1525.51	0.16
1525.88	0.08
1526.24	0.08
1526.6	0.08
1526.97	0.12
1527.33	0.12
1527.69	0.08
1528.06	0.08
1528.42	0.16
1528.79	0.2
1529.15	-0.6
1529.51	-0.6
1529.88	-0.6
1530.24	-0.56
1530.6	-0.68
1530.97	0.16
1531.33	0.16
1531.69	0.2
1532.06	0.08
1532.42	0.08
1532.78	0.04
1533.15	0.04
1533.51	0.08
1533.87	0.08
1534.24	0.08
1534.6	0.08
1534.96	0.08
1535.33	0.24
1535.69	0.24
1536.05	0.28
1536.42	0.28
1536.78	0.28
1537.14	0.04
1537.51	0.12
1537.87	0.08
1538.23	0.08
1538.6	0.08
1538.96	0.08
1539.32	0
1539.68	0
1540.05	0
1540.41	0.16
1540.77	0.64
1541.14	0.68
1541.5	0.68
1541.86	0.68
1542.23	0.56
1542.59	0.08
1542.95	0.04
1543.31	0.24
1543.68	0.32
1544.04	0.44
1544.4	0.44
1544.76	0.52
1545.13	0.64
1545.49	0.56
1545.85	0.56
1546.21	0.92
1546.58	0.88
1546.94	0.6
1547.3	0.6
1547.66	0.44
1548.03	0.08
1548.39	0.12
1548.75	0.08
1549.11	0.12
1549.48	0.36
1549.84	0.84
1550.2	0.92
1550.56	0.92
1550.93	0.88
1551.29	0.72
1551.65	0.24
1552.01	0.08
1552.37	0.08
1552.74	0.08
1553.1	0.12
1553.46	0.12
1553.82	0.12
1554.18	0.12
1554.55	0.12
1554.91	0
1555.27	0
1555.63	0
1555.99	0
1556.36	0
1556.72	-1.6
1557.08	-1.44
1557.44	-1.44
1557.8	-1.28
1558.17	-1.28
1558.53	0.32
1558.89	0.24
1559.25	0.4
1559.61	0.48
1559.97	0.48
1560.34	0.72
1560.7	0.72
1561.06	0.56
1561.42	0.36
1561.78	0.44
1562.14	-0.12
1562.5	-0.2
1562.87	0.08
1563.23	0.04
1563.59	-0.44
1563.95	-0.12
1564.31	-0.08
1564.67	-0.12
1565.03	-0.12
1565.4	0.28
1565.76	0.36
1566.12	0.32
1566.48	0.08
1566.84	0.28
1567.2	0.36
1567.56	0.08
1567.92	0.08
1568.29	0.08
1568.65	-0.12
1569.01	-0.2
1569.37	0
1569.73	0.08
1570.09	0.16
1570.45	0.28
1570.81	0.32
1571.17	0.32
1571.53	0.24
1571.89	0.16
1572.26	0.04
1572.62	0
1572.98	0
1573.34	0
1573.7	0.16
1574.06	0.2
1574.42	0.2
1574.78	0.12
1575.14	0.12
1575.5	-0.04
1575.86	-0.84
1576.22	-0.8
1576.58	-0.72
1576.94	-0.72
1577.3	-0.4
1577.67	0.56
1578.03	0.52
1578.39	0.52
1578.75	0.64
1579.11	0.44
1579.47	0.32
1579.83	0.32
1580.19	0.4
1580.55	0.6
1580.91	0.48
1581.27	0.44
1581.63	0.44
1581.99	0.36
1582.35	0.04
1582.71	0.04
1583.07	0
1583.43	0
1583.79	0.2
1584.15	0.2
1584.51	0.32
1584.87	0.44
1585.23	0.44
1585.59	0.24
1585.95	0.4
1586.31	0.28
1586.67	0.16
1587.03	0.16
1587.39	0.16
1587.75	0
1588.11	0.04
1588.47	0.16
1588.83	0.48
1589.19	0.48
1589.55	0.56
1589.91	0.52
1590.27	0.4
1590.63	0.08
1590.99	0.2
1591.35	0.12
1591.71	0.12
1592.07	0.36
1592.42	0.52
1592.78	0.4
1593.14	0.48
1593.5	0.48
1593.86	0.24
1594.22	0.24
1594.58	0.28
1594.94	0.24
1595.3	0.32
1595.66	0.44
1596.02	0.84
1596.38	1.04
1596.74	1.08
1597.1	1.04
1597.46	1.08
1597.81	0.52
1598.17	0.28
1598.53	0.2
1598.89	0.36
1599.25	0.32
1599.61	0.52
1599.97	0.72
1600.33	0.72
1600.69	0.52
1601.05	0.4
1601.4	0.24
1601.76	-0.04
1602.12	-0.04
1602.48	0.16
1602.84	0.16
1603.2	0.12
1603.56	0.24
1603.92	0.4
1604.28	0.2
1604.63	0.2
1604.99	0.2
1605.35	0.16
1605.71	0.2
1606.07	0.2
1606.43	0.24
1606.79	0.44
1607.14	0.52
1607.5	0.44
1607.86	0.48
1608.22	0.44
1608.58	0.32
1608.94	0.24
1609.29	0.2
1609.65	0.16
1610.01	0.32
1610.37	0.28
1610.73	0.32
1611.09	0.32
1611.44	0.32
1611.8	0.28
1612.16	0.32
1612.52	0.28
1612.88	0.24
1613.24	0.36
1613.59	0.24
1613.95	0.32
1614.31	0.44
1614.67	0.4
1615.03	0.32
1615.38	0.36
1615.74	0.24
1616.1	0.12
1616.46	0.12
1616.82	0.16
1617.17	0.24
1617.53	0.2
1617.89	0.4
1618.25	0.4
1618.6	0.4
1618.96	0.32
1619.32	0.32
1619.68	0.2
1620.04	0.44
1620.39	0.32
1620.75	0.36
1621.11	0.48
1621.47	0.52
1621.82	0.28
1622.18	0.36
1622.54	0.32
1622.9	0.2
1623.25	-0.68
1623.61	-0.64
1623.97	-0.52
1624.33	-0.56
1624.68	-0.76
1625.04	0.08
1625.4	0.04
1625.75	-0.72
1626.11	-0.72
1626.47	-0.52
1626.83	-0.52
1627.18	-0.36
1627.54	0.28
1627.9	0.44
1628.26	0.48
1628.61	0.52
1628.97	0.44
1629.33	0.4
1629.68	0.36
1630.04	0.72
1630.4	5.55112e-17
1630.75	-0.08
1631.11	-0.08
1631.47	-0.4
1631.83	-0.68
1632.18	-0.08
1632.54	-0.08
1632.9	-0.08
1633.25	0.2
1633.61	0.08
1633.97	0.08
1634.32	0.08
1634.68	0.16
1635.04	0.08
1635.39	0.08
1635.75	0.32
1636.11	0.32
1636.46	0.24
1636.82	0.28
1637.18	0.28
1637.53	0.04
1637.89	0.2
1638.25	0.32
1638.6	0.48
1638.96	0.48
1639.31	0.68
1639.67	0.52
1640.03	0.4
1640.38	0.72
1640.74	0.72
1641.1	0.52
1641.45	0.64
1641.81	0.64
1642.16	0.12
1642.52	0.12
1642.88	0.4
1643.23	-0.28
1643.59	-0.28
1643.95	-0.28
1644.3	-0.28
1644.66	-0.56
1645.01	0.12
1645.37	0.16
1645.73	0.16
1646.08	0.36
1646.44	0.36
1646.79	-0.32
1647.15	-0.24
1647.51	-0.04
1647.86	-0.24
1648.22	-0.24
1648.57	-0.48
1648.93	-0.6
1649.28	-0.68
1649.64	-0.68
1650	-0.6
1650.35	0.2
1650.71	0.24
1651.06	0.12
1651.42	0.44
1651.77	0.24
1652.13	0.24
1652.48	0.2
1652.84	0.2
1653.2	-0.04
1653.55	0.2
1653.91	0.2
1654.26	0.2
1654.62	0.2
1654.97	0.32
1655.33	0.2
1655.68	0.2
1656.04	0.24
1656.39	0.24
1656.75	0.04
1657.1	0.04
1657.46	0.04
1657.81	0
1658.17	0
1658.52	0
1658.88	0.04
1659.23	0.04
1659.59	0.04
1659.94	0.04
1660.3	0.28
1660.65	0.24
1661.01	0.24
1661.36	0.24
1661.72	0.4
1662.07	0.24
1662.43	0.24
1662.78	0.24
1663.14	0.24
1663.49	0.08
1663.85	0.12
1664.2	0.12
1664.56	0.12
1664.91	-1.56
1665.27	-1.56
1665.62	-1.4
1665.98	-1.4
1666.33	-1.32
1666.69	0.36
1667.04	0.36
1667.39	0.08
1667.75	0.08
1668.1	0.12
1668.46	0.12
1668.81	0.16
1669.17	0.24
1669.52	0.24
1669.88	0.24
1670.23	0.32
1670.58	0.48
1670.94	0.4
1671.29	0.4
1671.65	0.28
1672	0.36
1672.36	0.16
1672.71	0.16
1673.06	0.16
1673.42	0.32
1673.77	0.16
1674.13	0.16
1674.48	0.2
1674.83	0.2
1675.19	0.04
1675.54	0.08
1675.9	0.4
1676.25	0.36
1676.6	0.72
1676.96	0.88
1677.31	0.84
1677.67	0.64
1678.02	0.64
1678.37	0.36
1678.73	0.2
1679.08	0.28
1679.43	0.16
1679.79	0.2
1680.14	0.2
1680.5	-0.32
1680.85	-0.12
1681.2	-0.08
1681.56	-0.12
1681.91	-0.2
1682.26	0.36
1682.62	0.28
1682.97	0.24
1683.32	0.4
1683.68	0.56
1684.03	0.52
1684.38	1
1684.74	1.24
1685.09	1.08
1685.44	0.92
1685.8	0.92
1686.15	0.32
1686.5	0.08
1686.86	0.08
1687.21	0.44
1687.56	0.68
1687.92	0.72
1688.27	0.96
1688.62	0.96
1688.98	0.84
1689.33	0.6
1689.68	0.68
1690.03	0.56
1690.39	0.64
1690.74	0.44
1691.09	0.96
1691.45	0.36
1691.8	0.48
1692.15	0.6
1692.5	0.56
1692.86	0.12
1693.21	0.56
1693.56	0.4
1693.92	0.44
1694.27	-0.12
1694.62	-0.2
1694.97	0.36
1695.33	0.28
1695.68	0.04
1696.03	0.84
1696.38	0.92
1696.74	0.32
1697.09	0.12
1697.44	0.24
1697.79	6.66107e-18
1698.15	-0.08
1698.5	0.16
1698.85	0.36
1699.2	-0.44
1699.56	-0.36
1699.91	4.21755e-17
1700.26	-0.2
1700.61	-0.2
1700.97	0.56
1701.32	0.48
1701.67	0.12
1702.02	0.08
1702.37	0.16
1702.73	0.16
1703.08	0.2
1703.43	0.2
1703.78	0.32
1704.13	0.36
1704.49	0.6
1704.84	0.64
1705.19	0.64
1705.54	0.52
1705.89	0.44
1706.25	0.12
1706.6	0.04
1706.95	0.12
1707.3	0.12
1707.65	0.24
1708.01	0.32
1708.36	0.48
1708.71	0.4
1709.06	0.44
1709.41	0.28
1709.76	0.2
1710.12	0.28
1710.47	0.28
1710.82	0.36
1711.17	0.4
1711.52	0.44
1711.87	0.24
1712.23	0.52
1712.58	0.4
1712.93	0.36
1713.28	0.56
1713.63	0.52
1713.98	0.24
1714.33	0.24
1714.69	0.72
1715.04	0.48
1715.39	0.52
1715.74	0.52
1716.09	0.52
1716.44	0.16
1716.79	0.32
1717.14	0.28
1717.5	0.56
1717.85	0.56
1718.2	0.44
1718.55	0.52
1718.9	0.52
1719.25	0.48
1719.6	0.64
1719.95	0.64
1720.3	0.52
1720.65	0.84
1721.01	0.76
1721.36	0.68
1721.71	0.8
1722.06	0.28
1722.41	0.08
1722.76	-0.08
1723.11	1.44334e-17
1723.46	-0.12
1723.81	0.28
1724.16	0.16
1724.51	0.16
1724.86	0
1725.21	0.08
1725.56	0.08
1725.92	0.08
1726.27	0.16
1726.62	0.2
1726.97	0.24
1727.32	-0.16
1727.67	-0.16
1728.02	-0.16
1728.37	0.76
1728.72	0.88
1729.07	1.44
1729.42	1.92
1729.77	1.96
1730.12	1.2
1730.47	1.08
1730.82	0.92
1731.17	0.68
1731.52	0.72
1731.87	0.6
1732.22	0.84
1732.57	0.96
1732.92	1.08
1733.27	1.04
1733.62	1.16
1733.97	0.96
1734.32	1.64
1734.67	1.32
1735.02	1.04
1735.37	1.2
1735.72	1.44
1736.07	1
1736.42	1.4
1736.77	2.04
1737.12	2.16
1737.47	2.04
1737.82	1.84
1738.17	2.08
1738.52	1.8
1738.87	1.32
1739.22	2.24
1739.57	2.6
1739.92	2.44
1740.27	2.56
1740.62	3.32
1740.97	2.48
1741.32	2.36
1741.67	2.2
1742.02	2.36
1742.37	1.76
1742.72	2.36
1743.06	3.56
1743.41	3.72
1743.76	4.6
1744.11	4.92
1744.46	5.08
1744.81	4.36
1745.16	4.68
1745.51	4.72
1745.86	5.84
1746.21	5.84
1746.56	5.92
1746.91	5.88
1747.26	5.48
1747.6	5.56
1747.95	6.12
1748.3	6.48
1748.65	6.76
1749	6.4
1749.35	5.6
1749.7	5.68
1750.05	6
1750.4	6.24
1750.75	6.52
1751.09	6.48
1751.44	7.48
1751.79	6.68
1752.14	6.28
1752.49	7.32
1752.84	7.8
1753.19	6
1753.54	7.28
1753.88	7.6
1754.23	8.28
1754.58	8.84
1754.93	9.16
1755.28	7.68
1755.63	9.44
1755.98	7.72
1756.32	7.04
1756.67	7.56
1757.02	8.88
1757.37	8.24
1757.72	8.16
1758.07	9.16
1758.42	9.64
1758.76	8.88
1759.11	7.92
1759.46	8.96
1759.81	7.24
1760.16	6.8
1760.5	6.84
1760.85	5.84
1761.2	5.12
1761.55	6
1761.9	5.32
1762.25	5.96
1762.59	6.28
1762.94	7.2
1763.29	6.64
1763.64	6.44
1763.99	6.4
1764.33	7.16
1764.68	6
1765.03	6.96
1765.38	7.08
1765.73	6.12
1766.07	6.32
1766.42	6.64
1766.77	6.48
1767.12	6.08
1767.46	5.76
1767.81	5
1768.16	3.96
1768.51	2.96
1768.85	3.84
1769.2	4.64
1769.55	3.92
1769.9	4.84
1770.25	5.24
1770.59	4.36
1770.94	3.16
1771.29	3.4
1771.64	2.92
1771.98	2.32
1772.33	1.92
1772.68	2.2
1773.02	2.56
1773.37	3.24
1773.72	2.92
1774.07	3.48
1774.41	3.36
1774.76	3.56
1775.11	2.36
1775.46	2.44
1775.8	2.36
1776.15	2.4
1776.5	1.44
1776.84	1.44
1777.19	1.44
1777.54	0.8
1777.89	0.88
1778.23	1.04
1778.58	1.44
1778.93	1.52
1779.27	1.6
1779.62	1.52
1779.97	1.36
1780.31	0.88
1780.66	0.64
1781.01	0.56
1781.35	0.32
1781.7	0.52
1782.05	0.48
1782.39	0.68
1782.74	1.08
1783.09	1.04
1783.43	0.92
1783.78	0.92
1784.13	1.36
1784.47	0.28
1784.82	1.08
1785.17	1.44
1785.51	1.64
1785.86	1.2
1786.21	2.12
1786.55	1.36
1786.9	1.16
1787.25	0.96
1787.59	0.84
1787.94	0.84
1788.29	0.8
1788.63	0.96
1788.98	1.28
1789.32	1.92
1789.67	1.8
1790.02	2.36
1790.36	3.92
1790.71	5.52
1791.06	5.2
1791.4	5.64
1791.75	6.08
1792.09	5.08
1792.44	4.16
1792.79	2.44
1793.13	2.08
1793.48	2.44
1793.82	1.44
1794.17	-1.2
1794.52	0.8
1794.86	1.12
1795.21	2.50911e-16
1795.55	0.2
1795.9	4.72
1796.24	10.6
1796.59	12.12
1796.94	13.64
1797.28	15.2
1797.63	12.52
1797.97	7.84
1798.32	7.6
1798.66	8.96
1799.01	8.76
1799.36	8.92
1799.7	10.44
1800.05	11.32
1800.39	9.6
1800.74	18.16
1801.08	25.6
1801.43	26.6
1801.77	25.96
1802.12	26.56
1802.46	20.72
1802.81	15.28
1803.15	12.48
1803.5	13.16
1803.85	13.52
1804.19	15.28
1804.54	21.16
1804.88	23.96
1805.23	25.64
1805.57	32.36
1805.92	34.32
1806.26	31.04
1806.61	32.2
1806.95	39.56
1807.3	47.48
1807.64	50.6
1807.99	52.28
1808.33	50.96
1808.68	46.36
1809.02	50.6
1809.37	57.32
1809.71	60.36
1810.06	65.84
1810.4	66.6
1810.75	53.28
1811.09	58.32
1811.43	72.8
1811.78	84.28
1812.12	95.28
1812.47	101.76
1812.81	90.72
1813.16	83.92
1813.5	75.12
1813.85	65.68
1814.19	66.32
1814.54	64.76
1814.88	54.72
1815.23	48.36
1815.57	41.68
1815.91	31.04
1816.26	41.28
1816.6	58.28
1816.95	66.56
1817.29	83.36
1817.64	102.36
1817.98	106.88
1818.32	113.16
1818.67	122.44
1819.01	120.16
1819.36	119
1819.7	108.28
1820.05	93.92
1820.39	97.8
1820.73	98.6
1821.08	87.88
1821.42	93
1821.77	93.32
1822.11	72.96
1822.45	72.4
1822.8	81.28
1823.14	72.36
1823.49	80.32
1823.83	115.04
1824.17	128.44
1824.52	136.04
1824.86	153.96
1825.2	148.32
1825.55	123.92
1825.89	111.28
1826.24	103.6
1826.58	113.32
1826.92	129.32
1827.27	133.52
1827.61	143
1827.95	150.16
1828.3	128.28
1828.64	110.8
1828.98	107.68
1829.33	96.84
1829.67	111.88
1830.02	135.96
1830.36	146.88
1830.7	168.2
1831.05	190.32
1831.39	171.48
1831.73	160.6
1832.08	165.6
1832.42	146.56
1832.76	131.04
1833.1	137.68
1833.45	126.48
1833.79	112.52
1834.13	116.36
1834.48	113.12
1834.82	109.52
1835.16	121.64
1835.51	120.24
1835.85	115.68
1836.19	120.72
1836.54	107.72
1836.88	91.44
1837.22	86.84
1837.56	79.8
1837.91	77.84
1838.25	101.44
1838.59	118.4
1838.94	125.64
1839.28	136.6
1839.62	132.48
1839.96	116.12
1840.31	105.32
1840.65	100
1840.99	97.16
1841.34	125.24
1841.68	147.36
1842.02	157.2
1842.36	173.72
1842.71	177.16
1843.05	143.64
1843.39	136.44
1843.73	158.6
1844.08	165
1844.42	184.04
1844.76	214.56
1845.1	209.52
1845.45	184.36
1845.79	179.52
1846.13	169.6
1846.47	154.96
1846.81	153.96
1847.16	153.56
1847.5	158.8
1847.84	173.8
1848.18	185.6
1848.53	189.64
1848.87	198.36
1849.21	192.08
1849.55	171.68
1849.89	165.08
1850.24	157.48
1850.58	147.76
1850.92	145.2
1851.26	142.8
1851.6	134.88
1851.95	138.52
1852.29	138.88
1852.63	133.12
1852.97	133.48
1853.31	125.72
1853.66	114.72
1854	108.92
1854.34	104.88
1854.68	111.56
1855.02	127.36
1855.36	133.96
1855.71	135.56
1856.05	141.48
1856.39	126.64
1856.73	111.24
1857.07	109.52
1857.41	106.6
1857.76	101.48
1858.1	110.56
1858.44	105.92
1858.78	98.88
1859.12	99.32
1859.46	93.2
1859.8	79.36
1860.15	77.8
1860.49	79.64
1860.83	86.2
1861.17	100.44
1861.51	102.8
1861.85	103.88
1862.19	101.8
1862.53	90.88
1862.88	81.08
1863.22	83.8
1863.56	81.92
1863.9	82.2
1864.24	91.84
1864.58	86.2
1864.92	82.8
1865.26	87.28
1865.6	80.64
1865.94	68.2
1866.29	66.76
1866.63	60.64
1866.97	54.72
1867.31	52.16
1867.65	48.8
1867.99	50.24
1868.33	50.12
1868.67	45.24
1869.01	45.16
1869.35	50.08
1869.69	55.6
1870.03	63.84
1870.37	70.52
1870.72	78.92
1871.06	78.8
1871.4	66.92
1871.74	56.56
1872.08	50.32
1872.42	47.56
1872.76	51.88
1873.1	58.84
1873.44	60.12
1873.78	59.92
1874.12	50.28
1874.46	39.68
1874.8	42.36
1875.14	49.32
1875.48	52.44
1875.82	56.92
1876.16	59.88
1876.5	55.72
1876.84	51.16
1877.18	50.12
1877.52	48.2
1877.86	45.16
1878.2	39.12
1878.54	32.76
1878.88	29.64
1879.22	29.08
1879.56	24.88
1879.9	22.68
1880.24	23
1880.58	21.08
1880.92	22.56
1881.26	25.2
1881.6	24.16
1881.94	22.56
1882.28	21.8
1882.62	18.08
1882.96	20.24
1883.3	26.48
1883.64	29.6
1883.98	31.36
1884.32	32.44
1884.66	26.8
1885	18.96
1885.34	17.12
1885.68	17.08
1886.02	14.32
1886.36	14.08
1886.7	14.76
1887.04	12.24
1887.38	8.44
1887.72	8.28
1888.06	6.64
1888.39	4.72
1888.73	5.12
1889.07	6.72
1889.41	8.6
1889.75	8.6
1890.09	13.4
1890.43	17.28
1890.77	19.48
1891.11	19.6
1891.45	20.68
1891.79	17.16
1892.13	12.68
1892.47	8.24
1892.8	5.2
1893.14	4.68
1893.48	4
1893.82	3.6
1894.16	5.52
1894.5	6.96
1894.84	6.68
1895.18	6.52
1895.52	6.12
1895.86	4.24
1896.19	2.56
1896.53	2.96
1896.87	2.28
1897.21	1.88
1897.55	2.88
1897.89	3.52
1898.23	4.76
1898.57	6.68
1898.9	7.72
1899.24	6.64
1899.58	6.04
1899.92	5
1900.26	2.96
1900.6	2.68
1900.94	2.92
1901.27	3.04
1901.61	1.88
1901.95	2.28
1902.29	2.32
1902.63	2.08
1902.97	2.48
1903.3	2.68
1903.64	2.2
1903.98	1.84
1904.32	2.2
1904.66	1.72
1905	2.68
1905.33	3.48
1905.67	3.88
1906.01	4.04
1906.35	4.48
1906.69	4.24
1907.02	4.88
1907.36	4.16
1907.7	4.88
1908.04	5.6
1908.38	5.56
1908.71	5.36
1909.05	7.12
1909.39	6.24
1909.73	6.4
1910.07	6.6
1910.4	6.44
1910.74	5.16
1911.08	6.4
1911.42	6.48
1911.76	6.28
1912.09	6.04
1912.43	6.84
1912.77	5.92
1913.11	5.44
1913.44	6.68
1913.78	7.56
1914.12	7.2
1914.46	8.72
1914.79	10.52
1915.13	9.8
1915.47	10.32
1915.81	11.2
1916.14	10.72
1916.48	9.84
1916.82	10.8
1917.16	10.24
1917.49	11.44
1917.83	13.32
1918.17	13.44
1918.5	14.32
1918.84	16.64
1919.18	16.12
1919.52	16.32
1919.85	17.44
1920.19	19.84
1920.53	19.44
1920.87	20.28
1921.2	20.64
1921.54	21.08
1921.88	20.76
1922.21	22.2
1922.55	22.92
1922.89	23.88
1923.22	27.8
1923.56	25.92
1923.9	25.36
1924.23	28.36
1924.57	28.04
1924.91	25.4
1925.25	29.16
1925.58	29.92
1925.92	28
1926.26	30.44
1926.59	32.52
1926.93	30.88
1927.27	31.32
1927.6	33.04
1927.94	31.96
1928.28	31.44
1928.61	33.92
1928.95	35.36
1929.29	34.72
1929.62	36.4
1929.96	39.08
1930.29	38.28
1930.63	39.04
1930.97	42.12
1931.3	41.88
1931.64	40
1931.98	42.36
1932.31	43.2
1932.65	44
1932.99	45.48
1933.32	47.88
1933.66	47.2
1933.99	49.8
1934.33	49.04
1934.67	47.84
1935	48.68
1935.34	49.68
1935.67	47.76
1936.01	49.64
1936.35	54.28
1936.68	53.68
1937.02	54.72
1937.35	57.44
1937.69	57.2
1938.03	57.2
1938.36	58.6
1938.7	57.8
1939.03	57.84
1939.37	58.8
1939.7	57.68
1940.04	59.28
1940.38	61.04
1940.71	61.28
1941.05	62.56
1941.38	64.12
1941.72	62.92
1942.05	62.68
1942.39	65.28
1942.73	64.96
1943.06	64.76
1943.4	67.76
1943.73	69.8
1944.07	69.08
1944.4	70.44
1944.74	70.6
1945.07	70.16
1945.41	70.28
1945.74	70.64
1946.08	69.68
1946.42	70.72
1946.75	72.04
1947.09	71.48
1947.42	71.84
1947.76	74.16
1948.09	74.2
1948.43	72.08
1948.76	73
1949.1	71.68
1949.43	70.32
1949.77	70.32
1950.1	72.04
1950.44	73.16
1950.77	74.4
1951.11	76.32
1951.44	77.48
1951.78	76.96
1952.11	76.32
1952.45	76.2
1952.78	75.36
1953.12	75.88
1953.45	78.04
1953.79	79.04
1954.12	78.72
1954.46	78.12
1954.79	79.88
1955.12	78.6
1955.46	75.92
1955.79	78.48
1956.13	79.6
1956.46	76.08
1956.8	75.4
1957.13	79.28
1957.47	77.16
1957.8	76.92
1958.14	79.52
1958.47	81.08
1958.8	80.56
1959.14	80.44
1959.47	79.28
1959.81	77.92
1960.14	76.84
1960.48	76.04
1960.81	77.2
1961.14	78.72
1961.48	78
1961.81	78.56
1962.15	76.84
1962.48	76
1962.82	76.36
1963.15	78.36
1963.48	76.8
1963.82	76.56
1964.15	77.56
1964.49	77.04
1964.82	74.08
1965.15	74.68
1965.49	75.88
1965.82	75.04
1966.16	73.36
1966.49	74.56
1966.82	74.44
1967.16	74.24
1967.49	73.64
1967.83	74.52
1968.16	73.84
1968.49	72.76
1968.83	71.76
1969.16	71.48
1969.49	68.72
1969.83	67.96
1970.16	67.6
1970.49	68.24
1970.83	67
1971.16	66.92
1971.5	66.32
1971.83	65.56
1972.16	63.2
1972.5	63.8
1972.83	65
1973.16	64.04
1973.5	63.24
1973.83	61.68
1974.16	59.12
1974.5	57.04
1974.83	57.32
1975.16	56.72
1975.5	56.64
1975.83	56.6
1976.16	55.52
1976.49	53.72
1976.83	52.16
1977.16	52.84
1977.49	52.4
1977.83	52.88
1978.16	52.08
1978.49	51.24
1978.83	49.12
1979.16	47.96
1979.49	46.2
1979.83	44.52
1980.16	44.8
1980.49	43.56
1980.82	42.48
1981.16	43.16
1981.49	44.84
1981.82	42.08
1982.15	42.48
1982.49	41.84
1982.82	39.08
1983.15	36.48
1983.49	36.52
1983.82	36
1984.15	33.04
1984.48	32.44
1984.82	32.8
1985.15	31.4
1985.48	30.44
1985.81	30.12
1986.15	28.44
1986.48	24.48
1986.81	23.88
1987.14	21.48
1987.48	22.24
1987.81	22.48
1988.14	24.04
1988.47	24.24
1988.81	22.64
1989.14	21.08
1989.47	20.6
1989.8	19.2
1990.13	16.44
1990.47	18.28
1990.8	17.76
1991.13	16.76
1991.46	15.56
1991.79	15.96
1992.13	12.36
1992.46	10.52
1992.79	9.24
1993.12	8.52
1993.45	7.04
1993.79	8.8
1994.12	9.68
1994.45	8.16
1994.78	7.96
1995.11	9.12
1995.45	8.16
1995.78	6.64
1996.11	7.4
1996.44	7.76
1996.77	7.24
1997.1	5.88
1997.44	6.4
1997.77	5.4
1998.1	4.08
1998.43	3.16
1998.76	3.68
1999.09	3.2
1999.43	1.72
1999.76	1.76
2000.09	1.72
2000.42	1
2000.75	-0.36
2001.08	1.28
2001.41	1.12
2001.75	1
2002.08	0.96
2002.41	1.52
2002.74	1.16
2003.07	1.04
2003.4	0.88
2003.73	1.24
2004.06	1.36
2004.4	1.16
2004.73	1.08
2005.06	1.2
2005.39	0.8
2005.72	1.04
2006.05	1.16
2006.38	1.44
2006.71	1.2
2007.04	1.32
2007.37	1.32
2007.71	1.12
2008.04	1.16
2008.37	1.08
2008.7	0.96
2009.03	0.64
2009.36	0.88
2009.69	0.52
2010.02	0.48
2010.35	0.64
2010.68	0.72
2011.01	0.96
2011.34	0.92
2011.67	0.92
2012.01	0.92
2012.34	0.8
2012.67	0.64
2013	0.6
2013.33	0.6
2013.66	1.04
2013.99	1.12
2014.32	0.96
2014.65	1.12
2014.98	1.28
2015.31	0.92
2015.64	1.2
2015.97	1.52
2016.3	1.6
2016.63	1.68
2016.96	2
2017.29	1.24
2017.62	1.36
2017.95	1.68
2018.28	1.92
2018.61	1.76
2018.94	3.2
2019.27	3.48
2019.6	3.2
2019.93	3.2
2020.26	3.2
2020.59	2.84
2020.92	2.92
2021.25	3.28
2021.58	3.44
2021.91	3.48
2022.24	3.4
2022.57	3.24
2022.9	3.16
2023.23	3.48
2023.56	3.84
2023.89	3.68
2024.22	3.6
2024.55	3.72
2024.88	3.28
2025.21	4.04
2025.54	4.12
2025.87	4.48
2026.2	5.28
2026.53	5.48
2026.86	4.2
2027.19	4.84
2027.52	5.48
2027.85	5.48
2028.18	5.52
2028.51	6.52
2028.84	6.84
2029.16	6.44
2029.49	8.32
2029.82	8.96
2030.15	8.68
2030.48	7.92
2030.81	7.8
2031.14	5.44
2031.47	6.12
2031.8	6.76
2032.13	7.4
2032.46	8.96
2032.79	8.92
2033.12	7.56
2033.44	7.56
2033.77	8.28
2034.1	7
2034.43	7.64
2034.76	7.64
2035.09	6.88
2035.42	6.2
2035.75	6.32
2036.08	7.36
2036.41	7.32
2036.73	8.96
2037.06	8.64
2037.39	8.48
2037.72	7
2038.05	8.04
2038.38	6.8
2038.71	8.04
2039.04	7.68
2039.36	8.28
2039.69	8.16
2040.02	7.84
2040.35	6.48
2040.68	7.72
2041.01	7.28
2041.34	5.88
2041.66	5.88
2041.99	6.8
2042.32	6.36
2042.65	7.12
2042.98	9.2
2043.31	10.24
2043.63	10.04
2043.96	9.48
2044.29	8.92
2044.62	6.88
2044.95	6.68
2045.28	6.24
2045.6	6.36
2045.93	5.4
2046.26	6.4
2046.59	5.44
2046.92	5.6
2047.24	6.16
2047.57	6.4
2047.9	5.72
2048.23	5.44
2048.56	5.04
2048.88	3.12
2049.21	2.92
2049.54	3.44
2049.87	3.48
2050.2	3.04
2050.52	3.64
2050.85	3.88
2051.18	3.24
2051.51	2.96
2051.83	3.16
2052.16	2.92
2052.49	2.64
2052.82	2.36
2053.15	2.64
2053.47	2.16
2053.8	1.96
2054.13	1.96
2054.46	2
2054.78	1.56
2055.11	1.4
2055.44	1.16
2055.77	0.8
2056.09	1.4
2056.42	1.44
2056.75	1.8
2057.08	1.8
2057.4	2.36
2057.73	1.64
2058.06	1.8
2058.38	1.56
2058.71	2.16
2059.04	1.84
2059.37	1.8
2059.69	2.08
2060.02	2.36
2060.35	2.08
2060.67	1.64
2061	1.48
2061.33	1.04
2061.66	0.64
2061.98	0.52
2062.31	0.6
2062.64	0.84
2062.96	1.08
2063.29	1.12
2063.62	0.92
2063.94	0.84
2064.27	1.24
2064.6	0.16
2064.92	0.08
2065.25	0.2
2065.58	0.44
2065.91	-1.66533e-16
2066.23	0.92
2066.56	1.2
2066.89	1.68
2067.21	1.84
2067.54	1.76
2067.87	1.48
2068.19	1.12
2068.52	0.6
2068.84	0.2
2069.17	0.24
2069.5	0.44
2069.82	0.36
2070.15	0.48
2070.48	0.76
2070.8	0.6
2071.13	0.4
2071.46	0.48
2071.78	0.32
2072.11	0.2
2072.43	0.28
2072.76	0.44
2073.09	0.52
2073.41	0.72
2073.74	1
2074.07	1.24
2074.39	1.08
2074.72	1.08
2075.04	0.88
2075.37	0.44
2075.7	0.12
2076.02	0.12
2076.35	0.04
2076.67	0.24
2077	0.48
2077.33	0.56
2077.65	0.56
2077.98	1.04
2078.3	1.08
2078.63	0.88
2078.95	1.12
2079.28	1.28
2079.61	0.52
2079.93	0.44
2080.26	0.44
2080.58	0.44
2080.91	0.84
2081.23	1.36
2081.56	1.16
2081.89	1.32
2082.21	1
2082.54	0.68
2082.86	0.76
2083.19	0.96
2083.51	1.04
2083.84	1.04
2084.16	0.88
2084.49	0.56
2084.81	0.36
2085.14	0.08
2085.46	0.32
2085.79	0.24
2086.12	0.36
2086.44	0.44
2086.77	0.48
2087.09	0.36
2087.42	0.48
2087.74	0.72
2088.07	0.64
2088.39	0.6
2088.72	0.6
2089.04	0.72
2089.37	0.44
2089.69	0.72
2090.02	0.76
2090.34	0.24
2090.67	0.04
2090.99	-1.8
2091.32	-1.88
2091.64	-1.64
2091.97	-0.96
2092.29	-0.44
2092.62	1.6
2092.94	1.4
2093.26	1.68
2093.59	1.52
2093.91	-0.24
2094.24	-0.52
2094.56	-0.2
2094.89	-0.2
2095.21	-0.28
2095.54	1.08
2095.86	1.08
2096.19	0.88
2096.51	0.48
2096.84	1.08
2097.16	1.2
2097.48	1.2
2097.81	1.32
2098.13	1.32
2098.46	0.44
2098.78	0.16
2099.11	0.16
2099.43	3.49723e-17
2099.75	-0.12
2100.08	0.12
2100.4	0.76
2100.73	0.76
2101.05	0.68
2101.38	1.2
2101.7	1.36
2102.02	1.08
2102.35	1.28
2102.67	1.28
2103	0.76
2103.32	1.12
2103.64	0.76
2103.97	0.6
2104.29	0.6
2104.62	0.68
2104.94	0.16
2105.26	-0.28
2105.59	-0.28
2105.91	-0.28
2106.23	-0.28
2106.56	-0.16
2106.88	0.4
2107.21	0.56
2107.53	0.6
2107.85	0.52
2108.18	0.44
2108.5	0.56
2108.82	0.56
2109.15	0.52
2109.47	0.52
2109.79	0.48
2110.12	0.48
2110.44	0.68
2110.76	0.88
2111.09	0.88
2111.41	1.04
2111.73	0.8
2112.06	0.6
2112.38	0.44
2112.7	0.04
2113.03	-0.12
2113.35	-0.12
2113.67	-0.32
2114	-0.36
2114.32	0.44
2114.64	0.44
2114.97	0.44
2115.29	0.72
2115.61	0.84
2115.94	0.8
2116.26	0.96
2116.58	1.16
2116.91	-0.08
2117.23	-0.16
2117.55	-0.56
2117.87	-0.64
2118.2	-0.84
2118.52	0.16
2118.84	0.28
2119.17	0.28
2119.49	0.2
2119.81	0.2
2120.13	0.16
2120.46	0.04
2120.78	-0.88
2121.1	-0.64
2121.42	-0.4
2121.75	-0.04
2122.07	-0.08
2122.39	0.92
2122.72	0.68
2123.04	0.48
2123.36	0.16
2123.68	0.28
2124.01	0.44
2124.33	1
2124.65	0.96
2124.97	0.92
2125.29	0.8
2125.62	0.56
2125.94	0.08
2126.26	0.08
2126.58	0.08
2126.91	-0.92
2127.23	-0.92
2127.55	-1
2127.87	-1
2128.2	-1
2128.52	0.16
2128.84	0.44
2129.16	0.84
2129.48	0.88
2129.81	0.88
2130.13	0.76
2130.45	0.48
2130.77	0.12
2131.09	0.44
2131.42	0.44
2131.74	0.44
2132.06	0.68
2132.38	0.76
2132.7	0.52
2133.02	0.8
2133.35	0.76
2133.67	0.76
2133.99	0.76
2134.31	0.12
2134.63	-4.10777e-17
2134.96	0.2
2135.28	0.2
2135.6	0.08
2135.92	0.6
2136.24	0.44
2136.56	0.24
2136.88	0
2137.21	0.12
2137.53	0.12
2137.85	0.24
2138.17	-0.36
2138.49	-0.32
2138.81	-0.44
2139.13	-0.44
2139.46	-0.2
2139.78	0.48
2140.1	0.64
2140.42	0.64
2140.74	0.64
2141.06	0.28
2141.38	0.6
2141.7	0.48
2142.03	0.56
2142.35	0.56
2142.67	0.56
2142.99	0.16
2143.31	0.32
2143.63	0.36
2143.95	0.36
2144.27	0.36
2144.59	0.4
2144.91	-0.04
2145.24	-0.16
2145.56	-0.08
2145.88	-0.08
2146.2	-0.12
2146.52	0.08
2146.84	0.48
2147.16	0.52
2147.48	0.52
2147.8	0.6
2148.12	1.32
2148.44	1.04
2148.76	0.92
2149.08	1.12
2149.41	1.4
2149.73	0.72
2150.05	0.84
2150.37	0.84
2150.69	0.64
2151.01	0.32
2151.33	0.28
2151.65	0.16
2151.97	0.16
2152.29	0.16
2152.61	-0.28
2152.93	-0.08
2153.25	-0.2
2153.57	-0.04
2153.89	-0.04
2154.21	-0.04
2154.53	-0.08
2154.85	0.08
2155.17	-0.04
2155.49	0.04
2155.81	0.64
2156.13	0.68
2156.45	0.52
2156.77	0.56
2157.09	0.48
2157.41	0.4
2157.73	0.2
2158.05	0.72
2158.37	0.72
2158.69	1.08
2159.01	1.04
2159.33	1.04
2159.65	0.68
2159.97	0.6
2160.29	0.24
2160.61	0.16
2160.93	0.16
2161.25	0.32
2161.57	0.6
2161.89	0.6
2162.21	0.84
2162.53	1.04
2162.85	0.12
2163.17	-0.16
2163.49	-1.33221e-17
2163.81	-0.08
2164.13	-0.16
2164.45	-2.22261e-18
2164.77	0.12
2165.08	0.28
2165.4	0.4
2165.72	0.36
2166.04	0.8
2166.36	0.68
2166.68	0.36
2167	0.08
2167.32	0.04
2167.64	0.04
2167.96	0.04
2168.28	0.16
2168.6	0.16
2168.92	0.12
2169.24	0.56
2169.55	0.56
2169.87	0.44
2170.19	0.48
2170.51	0.8
2170.83	0.36
2171.15	0.36
2171.47	0.36
2171.79	0.32
2172.11	0.16
2172.43	0.16
2172.74	0.24
2173.06	0.24
2173.38	0.24
2173.7	0.28
2174.02	0.48
2174.34	0.56
2174.66	0.64
2174.98	0.64
2175.29	0.72
2175.61	0.56
2175.93	0.4
2176.25	0.52
2176.57	0.52
2176.89	0.32
2177.21	0.6
2177.52	0.88
2177.84	0.72
2178.16	0.72
2178.48	0.68
2178.8	0.36
2179.12	0.24
2179.43	0.44
2179.75	-0.56
2180.07	-0.6
2180.39	-0.28
2180.71	-0.16
2181.03	-0.4
2181.34	0.64
2181.66	1.04
2181.98	0.72
2182.3	0.44
2182.62	0.76
2182.93	0.44
2183.25	0.04
2183.57	0.04
2183.89	0.04
2184.21	-0.28
2184.52	0
2184.84	0.28
2185.16	0.28
2185.48	0.28
2185.8	0.28
2186.11	0.28
2186.43	0
2186.75	0
2187.07	-0.4
2187.39	-1.2
2187.7	-1.04
2188.02	-1.6
2188.34	-1.48
2188.66	-1.04
2188.97	-0.24
2189.29	-0.24
2189.61	0.32
2189.93	0.32
2190.24	0.4
2190.56	0.4
2190.88	0.24
2191.2	0.24
2191.51	0.12
2191.83	0
2192.15	0.08
2192.47	0.08
2192.78	0.08
2193.1	0.08
2193.42	0.08
2193.74	0
2194.05	0
2194.37	0
2194.69	0
2195	-0.36
2195.32	-0.32
2195.64	-0.32
2195.96	-0.32
2196.27	-0.04
2196.59	-0.28
2196.91	-0.24
2197.22	-0.12
2197.54	-0.12
2197.86	-0.4
2198.18	0.2
2198.49	0.36
2198.81	0.36
2199.13	0.72
2199.44	0.72
2199.76	0.72
2200.08	0.48
2200.39	0.4
2200.71	0.12
2201.03	0.28
2201.34	0.4
2201.66	0.4
2201.98	0.36
2202.29	0.44
2202.61	0.4
2202.93	0.48
2203.24	0.64
2203.56	0.68
2203.88	0.52
2204.19	0.48
2204.51	0.28
2204.83	0.2
2205.14	0.16
2205.46	0.2
2205.78	0.2
2206.09	0.2
2206.41	-0.08
2206.72	-0.28
2207.04	-0.32
2207.36	-0.72
2207.67	-0.72
2207.99	-0.52
2208.31	-0.28
2208.62	-0.16
2208.94	0.16
2209.25	0.2
2209.57	0.36
2209.89	0.48
2210.2	0.76
2210.52	0.76
2210.83	0.8
2211.15	0.64
2211.47	0.48
2211.78	0.08
2212.1	-0.32
2212.41	-0.32
2212.73	-0.28
2213.05	0.12
2213.36	0.12
2213.68	0.6
2213.99	0.52
2214.31	0.56
2214.62	0.16
2214.94	0.24
2215.26	0.16
2215.57	0.36
2215.89	0.28
2216.2	0.28
2216.52	0.2
2216.83	0.2
2217.15	0.28
2217.46	0.28
2217.78	0.28
2218.1	0.28
2218.41	0.48
2218.73	0.2
2219.04	0.2
2219.36	0.2
2219.67	0.28
2219.99	0.24
2220.3	0.24
2220.62	0.28
2220.93	0.32
2221.25	0.24
2221.56	0.08
2221.88	0.08
2222.19	0.36
2222.51	0.32
2222.82	-1.08
2223.14	-1.08
2223.45	-1.08
2223.77	-1.32
2224.08	-1.32
2224.4	0.08
2224.71	0.12
2225.03	0.16
2225.34	0.08
2225.66	-1.16
2225.97	-1.16
2226.29	-1.2
2226.6	-1.24
2226.92	-0.92
2227.23	0.32
2227.55	0.32
2227.86	0.32
2228.18	0.32
2228.49	0
2228.81	0
2229.12	0.24
2229.44	0.36
2229.75	0.52
2230.07	0.52
2230.38	0.52
2230.69	0.28
2231.01	0.16
2231.32	0
2231.64	0
2231.95	0.04
2232.27	0.04
2232.58	0.04
2232.9	0.48
2233.21	0.48
2233.52	0.44
2233.84	0.88
2234.15	0.88
2234.47	0.6
2234.78	0.92
2235.1	0.92
2235.41	0.52
2235.72	0.52
2236.04	0.36
2236.35	0.04
2236.67	-0.4
2236.98	-0.44
2237.29	-0.36
2237.61	-0.36
2237.92	-0.36
2238.24	0.08
2238.55	0.08
2238.86	0
2239.18	0
2239.49	-0.8
2239.8	-0.72
2240.12	-0.72
2240.43	-0.6
2240.75	-0.56
2241.06	0.32
2241.37	0.24
2241.69	0.24
2242	0.12
2242.31	0.12
2242.63	0.04
2242.94	0.04
2243.26	-0.56
2243.57	-0.56
2243.88	-0.6
2244.2	0.16
2244.51	0.2
2244.82	1
2245.14	1.2
2245.45	1.2
2245.76	0.48
2246.08	0.68
2246.39	0.52
2246.7	0.32
2247.02	0.32
2247.33	0.28
2247.64	0.04
2247.96	0
2248.27	0
2248.58	-0.96
2248.9	-0.96
2249.21	-0.92
2249.52	-0.88
2249.83	-0.88
2250.15	0.28
2250.46	0.4
2250.77	0.44
2251.09	0.48
2251.4	0.64
2251.71	0.48
2252.03	0.76
2252.34	0.68
2252.65	0.6
2252.96	0.44
2253.28	0.4
2253.59	0.12
2253.9	0.12
2254.21	0.44
2254.53	0.44
2254.84	0.16
2255.15	0.04
2255.47	0.12
2255.78	-0.2
2256.09	-0.2
2256.4	0.16
2256.72	0.16
2257.03	0.08
2257.34	0.08
2257.65	0.2
2257.97	0.12
2258.28	0.12
2258.59	0.12
2258.9	0.12
2259.22	0
2259.53	0
2259.84	0.04
2260.15	0.04
2260.46	0.08
2260.78	0.16
2261.09	0.28
2261.4	0.24
2261.71	0.36
2262.03	0.32
2262.34	0.24
2262.65	0.24
2262.96	0.24
2263.27	0.4
2263.59	0.44
2263.9	0.44
2264.21	0.36
2264.52	0.36
2264.83	0.36
2265.15	0.32
2265.46	0.52
2265.77	0.84
2266.08	0.84
2266.39	0.56
2266.7	0.56
2267.02	0.44
2267.33	-0.32
2267.64	-0.32
2267.95	-0.32
2268.26	-0.28
2268.57	-0.2
2268.89	0.2
2269.2	0.2
2269.51	0.2
2269.82	0.24
2270.13	0.08
2270.44	0.16
2270.76	-0.24
2271.07	-0.24
2271.38	-0.92
2271.69	-0.8
2272	-0.88
2272.31	-0.68
2272.62	-1.44
2272.93	-0.6
2273.25	-0.72
2273.56	-0.72
2273.87	-0.44
2274.18	0.32
2274.49	0.08
2274.8	0.08
2275.11	0.2
2275.42	0.12
2275.74	0.12
2276.05	0.12
2276.36	0.16
2276.67	0.04
2276.98	0.12
2277.29	0.12
2277.6	0.12
2277.91	0.08
2278.22	-0.32
2278.53	-0.36
2278.85	-0.36
2279.16	-1.16
2279.47	-1.16
2279.78	-0.76
2280.09	-0.8
2280.4	-0.8
2280.71	0.04
2281.02	0.12
2281.33	0.12
2281.64	0.2
2281.95	0.32
2282.26	0.28
2282.57	0.2
2282.88	0.2
2283.19	0.16
2283.5	0.04
2283.82	0.08
2284.13	0.12
2284.44	0.12
2284.75	-0.52
2285.06	-0.52
2285.37	-0.36
2285.68	-0.28
2285.99	-0.28
2286.3	0.32
2286.61	0.44
2286.92	0.24
2287.23	0.16
2287.54	0.16
2287.85	0.24
2288.16	0.12
2288.47	0.16
2288.78	0.12
2289.09	0.12
2289.4	0.04
2289.71	0.16
2290.02	0.24
2290.33	0.52
2290.64	0.52
2290.95	0.32
2291.26	0.2
2291.57	0.12
2291.88	-0.48
2292.19	-0.48
2292.5	-0.28
2292.81	-0.28
2293.12	-0.32
2293.43	0
2293.74	0
2294.05	0
2294.36	0
2294.67	0
2294.98	0
2295.29	0
2295.6	0
2295.91	0
2296.21	0
2296.52	0
2296.83	0
2297.14	0
2297.45	0
2297.76	0
2298.07	0
2298.38	0
2298.69	0
2299	0
2299.31	0
2299.62	0
2299.93	0
2300.24	0
2300.55	0
2300.85	0
2301.16	0
2301.47	0
2301.78	0
2302.09	0
2302.4	0
2302.71	0
2303.02	0
2303.33	0
2303.64	0
2303.94	0
2304.25	0
2304.56	0
2304.87	0
2305.18	0
2305.49	0
2305.8	0
2306.11	0
2306.42	0
2306.72	0
2307.03	0
2307.34	0
2307.65	0
2307.96	0
2308.27	0
2308.58	0
2308.88	0
2309.19	0
2309.5	0
2309.81	0
2310.12	0
2310.43	0
2310.74	0
2311.04	0
2311.35	0
2311.66	0
2311.97	0
2312.28	0
2312.59	0
2312.89	0
2313.2	0
2313.51	0
2313.82	0
2314.13	0
2314.43	0
2314.74	0
2315.05	0
2315.36	0
2315.67	0
2315.97	0
2316.28	0
2316.59	0
2316.9	0
2317.21	0
2317.51	0
2317.82	0
2318.13	0
2318.44	0
2318.75	0
2319.05	0
2319.36	0
2319.67	0
2319.98	0
2320.28	0
2320.59	0
2320.9	0
2321.21	0
2321.51	0
2321.82	0
2322.13	0
2322.44	0
2322.74	0
2323.05	0
2323.36	0
2323.67	0
2323.97	0
2324.28	0
2324.59	0
2324.9	0
2325.2	0
2325.51	0
2325.82	0
2326.13	0
2326.43	0
2326.74	0
2327.05	0
2327.35	0
2327.66	0
2327.97	0
2328.27	0
2328.58	0
2328.89	0
2329.2	0
2329.5	0
2329.81	0
2330.12	0
2330.42	0
2330.73	0
2331.04	0
2331.34	0
2331.65	0
2331.96	0
2332.26	0
2332.57	0
2332.88	0
2333.18	0
2333.49	0
2333.8	0
2334.1	0
2334.41	0
2334.72	0
2335.02	0
2335.33	0
2335.64	0
2335.94	0
2336.25	0
2336.56	0
2336.86	0
2337.17	0
2337.48	0
2337.78	0
2338.09	0
2338.39	0
2338.7	0
2339.01	0
2339.31	0
2339.62	0
2339.93	0
2340.23	0
2340.54	0
2340.84	0
2341.15	0
2341.46	0
2341.76	0
2342.07	0
2342.37	0
2342.68	0
2342.99	0
2343.29	0
2343.6	0
2343.9	0
2344.21	0
2344.51	0
2344.82	0
2345.13	0
2345.43	0
2345.74	0
2346.04	0
2346.35	0
2346.65	0
2346.96	0
2347.27	0
2347.57	0
2347.88	0
2348.18	0
2348.49	0
2348.79	0
2349.1	0
2349.4	0
2349.71	0
2350.01	0
2350.32	0
2350.63	0
2350.93	0
2351.24	0
2351.54	0
2351.85	0
2352.15	0
2352.46	0
2352.76	0
2353.07	0
2353.37	0
2353.68	0
2353.98	0
2354.29	0
2354.59	0
2354.9	0
2355.2	0
2355.51	0
2355.81	0
2356.12	0
2356.42	0
2356.73	0
2357.03	0
2357.34	0
2357.64	0
2357.95	0
2358.25	0
2358.55	0
2358.86	0
2359.16	0
2359.47	0
2359.77	0
2360.08	0
2360.38	0
2360.69	0
2360.99	0
2361.3	0
2361.6	0
2361.9	0
2362.21	0
2362.51	0
2362.82	0
2363.12	0
2363.43	0
2363.73	0
2364.04	0
2364.34	0
2364.64	0
2364.95	0
2365.25	0
2365.56	0
2365.86	0
2366.16	0
2366.47	0
2366.77	0
2367.08	0
2367.38	0
2367.68	0
2367.99	0
2368.29	0
2368.6	0
2368.9	0
2369.2	0
2369.51	0
2369.81	0
2370.12	0
2370.42	0
2370.72	0
2371.03	0
2371.33	0
2371.63	0
2371.94	0
2372.24	0
2372.55	0
2372.85	0
2373.15	0
2373.46	0
2373.76	0
2374.06	0
2374.37	0
2374.67	0
2374.97	0
2375.28	0
2375.58	0
2375.88	0
2376.19	0
2376.49	0
2376.79	0
2377.1	0
2377.4	0
2377.7	0
2378.01	0
2378.31	0
2378.61	0
2378.92	0
2379.22	0
2379.52	0
2379.82	0
2380.13	0
2380.43	0
2380.73	0
2381.04	0
2381.34	0
2381.64	0
2381.95	0
2382.25	0
2382.55	0
2382.85	0
2383.16	0
2383.46	0
2383.76	0
2384.06	0
2384.37	0
2384.67	0
2384.97	0
2385.28	0
2385.58	0
2385.88	0
2386.18	0
2386.49	0
2386.79	0
2387.09	0
2387.39	0
2387.69	0
2388	0
2388.3	0
2388.6	0
2388.9	0
2389.21	0
2389.51	0
2389.81	0
2390.11	0
2390.42	0
2390.72	0
2391.02	0
2391.32	0
2391.62	0
2391.93	0
2392.23	0
2392.53	0
2392.83	0
2393.13	0
2393.44	0
2393.74	0
2394.04	0
2394.34	0
2394.64	0
2394.95	0
2395.25	0
2395.55	0
2395.85	0
2396.15	0
2396.45	0
2396.76	0
2397.06	0
2397.36	0
2397.66	0
2397.96	0
2398.26	0
2398.57	0
2398.87	0
2399.17	0
2399.47	0
2399.77	0
2400.07	0
2400.37	0
2400.68	0
2400.98	0
2401.28	0
2401.58	0
2401.88	0
2402.18	0
2402.48	0
2402.79	0
2403.09	0
2403.39	0
2403.69	0
2403.99	0
2404.29	0
2404.59	0
2404.89	0
2405.19	0
2405.5	0
2405.8	0
2406.1	0
2406.4	0
2406.7	0
2407	0
2407.3	0
2407.6	0
2407.9	0
2408.2	0
2408.5	0
2408.8	0
2409.11	0
2409.41	0
2409.71	0
2410.01	0
2410.31	0
2410.61	0
2410.91	0
2411.21	0
2411.51	0
2411.81	0
2412.11	0
2412.41	0
2412.71	0
2413.01	0
2413.31	0
2413.61	0
2413.91	0
2414.21	0
2414.51	0
2414.81	0
2415.12	0
2415.42	0
2415.72	0
2416.02	0
2416.32	0
2416.62	0
2416.92	0
2417.22	0
2417.52	0
2417.82	0
2418.12	0
2418.42	0
2418.72	0
2419.02	0
2419.32	0
2419.62	0
2419.92	0
2420.22	0
2420.52	0
2420.82	0
2421.12	0
2421.42	0
2421.71	0
2422.01	0
2422.31	0
2422.61	0
2422.91	0
2423.21	0
2423.51	0
2423.81	0
2424.11	0
2424.41	0
2424.71	0
2425.01	0
2425.31	0
2425.61	0
2425.91	0
2426.21	0
2426.51	0
2426.81	0
2427.11	0
2427.41	0
2427.7	0
2428	0
2428.3	0
2428.6	0
2428.9	0
2429.2	0
2429.5	0
2429.8	0
2430.1	0
2430.4	0
2430.7	0
2430.99	0
2431.29	0
2431.59	0
2431.89	0
2432.19	0
2432.49	0
2432.79	0
2433.09	0
2433.39	0
2433.68	0
2433.98	0
2434.28	0
2434.58	0
2434.88	0
2435.18	0
2435.48	0
2435.78	0
2436.07	0
2436.37	0
2436.67	0
2436.97	0
2437.27	0
2437.57	0
2437.86	0
2438.16	0
2438.46	0
2438.76	0
2439.06	0
2439.36	0
2439.66	0
2439.95	0
2440.25	0
2440.55	0
2440.85	0
2441.15	0
2441.44	0
2441.74	0
2442.04	0
2442.34	0
2442.64	0
2442.93	0
2443.23	0
2443.53	0
2443.83	0
2444.13	0
2444.42	0
2444.72	0
2445.02	0
2445.32	0
2445.62	0
2445.91	0
2446.21	0
2446.51	0
2446.81	0
2447.1	0
2447.4	0
2447.7	0
2448	0
2448.3	0
2448.59	0
2448.89	0
2449.19	0
2449.49	0
2449.78	0
2450.08	0
2450.38	0
2450.68	0
2450.97	0
2451.27	0
2451.57	0
2451.87	0
2452.16	0
2452.46	0
2452.76	0
2453.05	0
2453.35	0
2453.65	0
2453.95	0
2454.24	0
2454.54	0
2454.84	0
2455.13	0
2455.43	0
2455.73	0
2456.03	0
2456.32	0
2456.62	0
2456.92	0
2457.21	0
2457.51	0
2457.81	0
2458.1	0
2458.4	0
2458.7	0
2458.99	0
2459.29	0
2459.59	0
2459.88	0
2460.18	0
2460.48	0
2460.77	0
2461.07	0
2461.37	0
2461.66	0
2461.96	0
2462.26	0
2462.55	0
2462.85	0
2463.15	0
2463.44	0
2463.74	0
2464.04	0
2464.33	0
2464.63	0
2464.92	0
2465.22	0
2465.52	0
2465.81	0
2466.11	0
2466.41	0
2466.7	0
2467	0
2467.29	0
2467.59	0
2467.89	0
2468.18	0
2468.48	0
2468.77	0
2469.07	0
2469.37	0
2469.66	0
2469.96	0
2470.25	0
2470.55	0
2470.84	0
2471.14	0
2471.44	0
2471.73	0
2472.03	0
2472.32	0
2472.62	0
2472.91	0
2473.21	0
2473.51	0
2473.8	0
2474.1	0
2474.39	0
2474.69	0
2474.98	0
2475.28	0
2475.57	0
2475.87	0
2476.17	0
2476.46	0
2476.76	0
2477.05	0
2477.35	0
2477.64	0
2477.94	0
2478.23	0
2478.53	0
2478.82	0
2479.12	0
2479.41	0
2479.71	0
2480	0
2480.3	0
2480.59	0
2480.89	0
2481.18	0
2481.48	0
2481.77	0
2482.07	0
2482.36	0
2482.66	0
2482.95	0
2483.25	0
2483.54	0
2483.84	0
2484.13	0
2484.43	0
2484.72	0
2485.02	0
2485.31	0
2485.6	0
2485.9	0
2486.19	0
2486.49	0
2486.78	0
2487.08	0
2487.37	0
2487.67	0
2487.96	0
2488.26	0
2488.55	0
2488.84	0
2489.14	0
2489.43	0
2489.73	0
2490.02	0
2490.32	0
2490.61	0
2490.9	0
2491.2	0
2491.49	0
2491.79	0
2492.08	0
2492.37	0
2492.67	0
2492.96	0
2493.26	0
2493.55	0
2493.84	0
2494.14	0
2494.43	0
2494.73	0
2495.02	0
2495.31	0
2495.61	0
2495.9	0
2496.2	0
2496.49	0
2496.78	0
2497.08	0
2497.37	0
2497.66	0
2497.96	0
2498.25	0
2498.54	0
2498.84	0
2499.13	0
2499.43	0
2499.72	0
2500.01	0
2500.31	0
2500.6	0
2500.89	0
2501.19	0
2501.48	0
2501.77	0
2502.07	0
2502.36	0
2502.65	0
2502.95	0
2503.24	0
2503.53	0
2503.82	0
2504.12	0
2504.41	0
2504.7	0
2505	0
2505.29	0
2505.58	0
2505.88	0
2506.17	0
2506.46	0
2506.76	0
2507.05	0
2507.34	0
2507.63	0
2507.93	0
2508.22	0
2508.51	0
2508.8	0
2509.1	0
2509.39	0
2509.68	0
2509.98	0
2510.27	0
2510.56	0
2510.85	0
2511.15	0
2511.44	0
2511.73	0
2512.02	0
2512.32	0
2512.61	0
2512.9	0
2513.19	0
2513.49	0
2513.78	0
2514.07	0
2514.36	0
2514.65	0
2514.95	0
2515.24	0
2515.53	0
2515.82	0
2516.12	0
2516.41	0
2516.7	0
2516.99	0
2517.28	0
2517.58	0
2517.87	0
2518.16	0
2518.45	0
2518.74	0
2519.04	0
2519.33	0
2519.62	0
2519.91	0
2520.2	0
2520.5	0
2520.79	0
2521.08	0
2521.37	0
2521.66	0
2521.95	0
2522.25	0
2522.54	0
2522.83	0
2523.12	0
2523.41	0
2523.7	0
2523.99	0
2524.29	0
2524.58	0
2524.87	0
2525.16	0
2525.45	0
2525.74	0
2526.03	0
2526.33	0
2526.62	0
2526.91	0
2527.2	0
2527.49	0
2527.78	0
2528.07	0
2528.36	0
2528.66	0
2528.95	0
2529.24	0
2529.53	0
2529.82	0
2530.11	0
2530.4	0
2530.69	0
2530.98	0
2531.27	0
2531.57	0
2531.86	0
2532.15	0
2532.44	0
2532.73	0
2533.02	0
2533.31	0
2533.6	0
2533.89	0
2534.18	0
2534.47	0
2534.76	0
2535.05	0
2535.35	0
2535.64	0
2535.93	0
2536.22	0
2536.51	0
2536.8	0
2537.09	0
2537.38	0
2537.67	0
2537.96	0
2538.25	0
2538.54	0
2538.83	0
2539.12	0
2539.41	0
2539.7	0
2539.99	0
2540.28	0
2540.57	0
2540.86	0
2541.15	0
2541.44	0
2541.73	0
2542.02	0
2542.31	0
2542.6	0
2542.89	0
2543.18	0
2543.47	0
2543.76	0
2544.05	0
2544.34	0
2544.63	0
2544.92	0
2545.21	0
2545.5	0
2545.79	0
2546.08	0
2546.37	0
2546.66	0
2546.95	0
2547.24	0
2547.53	0
2547.82	0
2548.11	0
2548.4	0
2548.69	0
2548.98	0
2549.27	0
2549.55	0
2549.84	0
2550.13	0
2550.42	0
2550.71	0
2551	0
2551.29	0
2551.58	0
2551.87	0
2552.16	0
2552.45	0
2552.74	0
2553.03	0
2553.31	0
2553.6	0
2553.89	0
2554.18	0
2554.47	0
2554.76	0
2555.05	0
2555.34	0
2555.63	0
2555.92	0
2556.2	0
2556.49	0
2556.78	0
2557.07	0
2557.36	0
2557.65	0
2557.94	0
2558.23	0
2558.51	0
2558.8	0
2559.09	0
2559.38	0
2559.67	0
2559.96	0
2560.25	0
2560.53	0
2560.82	0
2561.11	0
2561.4	0
2561.69	0
2561.98	0
2562.27	0
2562.55	0
2562.84	0
2563.13	0
2563.42	0
2563.71	0
2564	0
2564.28	0
2564.57	0
2564.86	0
2565.15	0
2565.44	0
2565.72	0
2566.01	0
2566.3	0
2566.59	0
2566.88	0
2567.16	0
2567.45	0
2567.74	0
2568.03	0
2568.32	0
2568.6	0
2568.89	0
2569.18	0
2569.47	0
2569.75	0

