Source: Spectrum Viewer

Chart: Pulse Spectrum

Series: 
Wavelength (nm)	S (a.u.)
1179.9	0
1180.29	0
1180.68	0
1181.06	0
1181.45	0
1181.83	0
1182.22	0
1182.6	0
1182.99	0
1183.38	0
1183.76	0
1184.15	0
1184.53	0
1184.92	0
1185.3	0
1185.69	0
1186.07	0
1186.46	0
1186.85	0
1187.23	0
1187.62	0
1188	0
1188.39	0
1188.77	0
1189.16	0
1189.54	0
1189.93	0
1190.31	0
1190.7	0
1191.08	0
1191.47	0
1191.85	0
1192.24	0
1192.62	0
1193.01	0
1193.39	0
1193.78	0
1194.16	0
1194.55	0
1194.93	0
1195.32	0
1195.7	0
1196.09	0
1196.47	0
1196.86	0
1197.24	0
1197.63	0
1198.01	0
1198.4	0
1198.78	0
1199.16	0
1199.55	0
1199.93	0
1200.32	0
1200.7	0
1201.09	0
1201.47	0
1201.86	0
1202.24	0
1202.63	0
1203.01	0
1203.39	0
1203.78	0
1204.16	0
1204.55	0
1204.93	0
1205.32	0
1205.7	0
1206.08	0
1206.47	0
1206.85	0
1207.24	0
1207.62	0
1208	0
1208.39	0
1208.77	0
1209.16	0
1209.54	0
1209.92	0
1210.31	0
1210.69	0
1211.08	0
1211.46	0
1211.84	0
1212.23	0
1212.61	0
1213	0
1213.38	0
1213.76	0
1214.15	0
1214.53	0
1214.91	0
1215.3	0
1215.68	0
1216.06	0
1216.45	0
1216.83	0
1217.22	0
1217.6	0
1217.98	0
1218.37	0
1218.75	0
1219.13	0
1219.52	0
1219.9	0
1220.28	0
1220.67	0
1221.05	0
1221.43	0
1221.82	0
1222.2	0
1222.58	0
1222.97	0
1223.35	0
1223.73	0
1224.11	0
1224.5	0
1224.88	0
1225.26	0
1225.65	0
1226.03	0
1226.41	0
1226.8	0
1227.18	0
1227.56	0
1227.94	0
1228.33	0
1228.71	0
1229.09	0
1229.47	0
1229.86	0
1230.24	0
1230.62	0
1231.01	0
1231.39	0
1231.77	0
1232.15	0
1232.54	0
1232.92	0
1233.3	0
1233.68	0
1234.07	0
1234.45	0
1234.83	0
1235.21	0
1235.6	0
1235.98	0
1236.36	0
1236.74	0
1237.12	0
1237.51	0
1237.89	0
1238.27	0
1238.65	0
1239.04	0
1239.42	0
1239.8	0
1240.18	0
1240.56	0
1240.95	0
1241.33	0
1241.71	0
1242.09	0
1242.47	0
1242.86	0
1243.24	0
1243.62	0
1244	0
1244.38	0
1244.77	0
1245.15	0
1245.53	0
1245.91	0
1246.29	0
1246.67	0
1247.06	0
1247.44	0
1247.82	0
1248.2	0
1248.58	0
1248.96	0
1249.34	0
1249.73	0
1250.11	0
1250.49	0
1250.87	0
1251.25	0
1251.63	0
1252.01	0
1252.4	0
1252.78	0
1253.16	0
1253.54	0
1253.92	0
1254.3	0
1254.68	0
1255.06	0
1255.45	0
1255.83	0
1256.21	0
1256.59	0
1256.97	0
1257.35	0
1257.73	0
1258.11	0
1258.49	0
1258.87	0
1259.26	0
1259.64	0
1260.02	0
1260.4	0
1260.78	0
1261.16	0
1261.54	0
1261.92	0
1262.3	0
1262.68	0
1263.06	0
1263.44	0
1263.82	0
1264.21	0
1264.59	0
1264.97	0
1265.35	0
1265.73	0
1266.11	0
1266.49	0
1266.87	0
1267.25	0
1267.63	0
1268.01	0
1268.39	0
1268.77	0
1269.15	0
1269.53	0
1269.91	0
1270.29	0
1270.67	0
1271.05	0
1271.43	0
1271.81	0
1272.19	0
1272.57	0
1272.95	0
1273.33	0
1273.71	0
1274.09	0
1274.47	0
1274.85	0
1275.23	0
1275.61	0
1275.99	0
1276.37	0
1276.75	0
1277.13	0
1277.51	0
1277.89	0
1278.27	0
1278.65	0
1279.03	0
1279.41	0
1279.79	0
1280.17	0
1280.55	0
1280.93	0
1281.31	0
1281.69	0
1282.07	0
1282.45	0
1282.82	0
1283.2	0
1283.58	0
1283.96	0
1284.34	0
1284.72	0
1285.1	0
1285.48	0
1285.86	0
1286.24	0
1286.62	0
1287	0
1287.38	0
1287.75	0
1288.13	0
1288.51	0
1288.89	0
1289.27	0
1289.65	0
1290.03	0
1290.41	0
1290.79	0
1291.17	0
1291.54	0
1291.92	0
1292.3	0
1292.68	0
1293.06	0
1293.44	0
1293.82	0
1294.2	0
1294.57	0
1294.95	0
1295.33	0
1295.71	0
1296.09	0
1296.47	0
1296.85	0
1297.22	0
1297.6	0
1297.98	0
1298.36	0
1298.74	0
1299.12	0
1299.5	0
1299.87	0
1300.25	0
1300.63	0
1301.01	0
1301.39	0
1301.77	0
1302.14	0
1302.52	0
1302.9	0
1303.28	0
1303.66	0
1304.03	0
1304.41	0
1304.79	0
1305.17	0
1305.55	0
1305.92	0
1306.3	0
1306.68	0
1307.06	0
1307.44	0
1307.81	0
1308.19	0
1308.57	0
1308.95	0
1309.32	0
1309.7	0
1310.08	0
1310.46	0
1310.84	0
1311.21	0
1311.59	0
1311.97	0
1312.35	0
1312.72	0
1313.1	0
1313.48	0
1313.86	0
1314.23	0
1314.61	0
1314.99	0
1315.37	0
1315.74	0
1316.12	0
1316.5	0
1316.87	0
1317.25	0
1317.63	0
1318.01	0
1318.38	0
1318.76	0
1319.14	0
1319.52	0
1319.89	0
1320.27	0
1320.65	0
1321.02	0
1321.4	0
1321.78	0
1322.15	0
1322.53	0
1322.91	0
1323.29	0
1323.66	0
1324.04	0
1324.42	0
1324.79	0
1325.17	0
1325.55	0
1325.92	0
1326.3	0
1326.68	0
1327.05	0
1327.43	0
1327.81	0
1328.18	0
1328.56	0
1328.94	0
1329.31	0
1329.69	0
1330.06	0
1330.44	0
1330.82	0
1331.19	0
1331.57	0
1331.95	0
1332.32	0
1332.7	0
1333.08	0
1333.45	0
1333.83	0
1334.2	0
1334.58	0
1334.96	0
1335.33	0
1335.71	0
1336.08	0
1336.46	0
1336.84	0
1337.21	0
1337.59	0
1337.96	0
1338.34	0
1338.72	0
1339.09	0
1339.47	0
1339.84	0
1340.22	0
1340.6	0
1340.97	0
1341.35	0
1341.72	0
1342.1	0
1342.47	0
1342.85	0
1343.23	0
1343.6	0
1343.98	0
1344.35	0
1344.73	0
1345.1	0
1345.48	0
1345.85	0
1346.23	0
1346.61	0
1346.98	0
1347.36	0
1347.73	0
1348.11	0
1348.48	0
1348.86	0
1349.23	0
1349.61	0
1349.98	0
1350.36	0
1350.73	0
1351.11	0
1351.48	0
1351.86	0
1352.23	0
1352.61	0
1352.98	0
1353.36	0
1353.73	0
1354.11	0
1354.48	0
1354.86	0
1355.23	0
1355.61	0
1355.98	0
1356.36	0
1356.73	0
1357.11	0
1357.48	0
1357.86	0
1358.23	0
1358.61	0
1358.98	0
1359.35	0
1359.73	0
1360.1	0
1360.48	0
1360.85	0
1361.23	0
1361.6	0
1361.98	0
1362.35	0
1362.72	0
1363.1	0
1363.47	0
1363.85	0
1364.22	0
1364.6	0
1364.97	0
1365.34	0
1365.72	0
1366.09	0
1366.47	0
1366.84	0
1367.22	0
1367.59	0
1367.96	0
1368.34	0
1368.71	0
1369.09	0
1369.46	-1
1369.83	-1
1370.21	-1
1370.58	-1
1370.96	-1
1371.33	0
1371.7	0
1372.08	0
1372.45	0
1372.82	0.04
1373.2	0.12
1373.57	0.12
1373.95	0.12
1374.32	0.16
1374.69	0.12
1375.07	0.04
1375.44	0.04
1375.81	0.04
1376.19	0
1376.56	0
1376.93	0
1377.31	0
1377.68	0
1378.05	0
1378.43	0
1378.8	0
1379.17	0
1379.55	0
1379.92	0
1380.29	0.04
1380.67	0.04
1381.04	0.04
1381.41	0.04
1381.79	0.04
1382.16	0
1382.53	0
1382.91	-1
1383.28	-0.88
1383.65	-0.88
1384.03	-0.88
1384.4	-0.88
1384.77	0.2
1385.14	0.08
1385.52	0.08
1385.89	0.08
1386.26	0.08
1386.64	0.08
1387.01	0.08
1387.38	0.08
1387.75	0.08
1388.13	0.08
1388.5	0.12
1388.87	0.12
1389.25	0.12
1389.62	-0.08
1389.99	-0.28
1390.36	-0.4
1390.74	-0.4
1391.11	-0.4
1391.48	-0.2
1391.85	0
1392.23	0
1392.6	0
1392.97	0
1393.34	0
1393.72	0
1394.09	0
1394.46	0.12
1394.83	0.12
1395.21	0.12
1395.58	0.12
1395.95	0.12
1396.32	0.04
1396.69	0.04
1397.07	0.04
1397.44	0.04
1397.81	0.04
1398.18	0
1398.55	0
1398.93	0
1399.3	0
1399.67	0
1400.04	0
1400.41	0.16
1400.79	0.16
1401.16	0.16
1401.53	0.16
1401.9	0.16
1402.27	0.44
1402.65	0.44
1403.02	0.44
1403.39	0.44
1403.76	0.04
1404.13	-0.32
1404.51	-0.32
1404.88	-0.32
1405.25	-0.32
1405.62	0.08
1405.99	0
1406.36	0.16
1406.74	0.2
1407.11	0.36
1407.48	0.44
1407.85	-0.56
1408.22	-0.72
1408.59	-0.76
1408.96	-0.88
1409.34	-0.8
1409.71	0.24
1410.08	0.24
1410.45	0.24
1410.82	0.2
1411.19	0.04
1411.56	0.12
1411.93	0.12
1412.31	0.12
1412.68	0.12
1413.05	0.12
1413.42	0
1413.79	0
1414.16	-0.2
1414.53	-0.2
1414.9	-0.24
1415.27	-0.24
1415.65	-0.24
1416.02	-0.04
1416.39	0.16
1416.76	0.2
1417.13	0.2
1417.5	0.2
1417.87	0.2
1418.24	0
1418.61	0
1418.98	0
1419.35	0
1419.73	0
1420.1	0
1420.47	0
1420.84	0
1421.21	0
1421.58	0
1421.95	0
1422.32	0.12
1422.69	0.12
1423.06	0.12
1423.43	0.12
1423.8	0.12
1424.17	0
1424.54	0
1424.91	0
1425.28	0
1425.65	0
1426.02	0
1426.39	0
1426.76	-0.6
1427.14	-0.6
1427.51	-0.6
1427.88	-0.6
1428.25	-0.6
1428.62	0
1428.99	0
1429.36	0.28
1429.73	0.28
1430.1	0.28
1430.47	0.32
1430.84	0.44
1431.21	0.16
1431.58	0.16
1431.95	0.16
1432.32	-0.08
1432.69	-0.2
1433.06	-0.2
1433.43	-0.2
1433.8	-0.2
1434.17	0.08
1434.54	0.08
1434.91	0.08
1435.28	0.08
1435.64	0.08
1436.01	-0.6
1436.38	-0.6
1436.75	-0.6
1437.12	-0.28
1437.49	-0.24
1437.86	0.6
1438.23	0.64
1438.6	0.64
1438.97	0.32
1439.34	0.28
1439.71	0.04
1440.08	0
1440.45	0
1440.82	-0.6
1441.19	-0.6
1441.56	-0.6
1441.93	-0.6
1442.3	-0.6
1442.67	-1.56
1443.03	-1.56
1443.4	-1.56
1443.77	-1.56
1444.14	-1.56
1444.51	0
1444.88	0.04
1445.25	0.04
1445.62	0.04
1445.99	0.04
1446.36	0.2
1446.73	0.16
1447.09	0.16
1447.46	0.16
1447.83	0.16
1448.2	0
1448.57	-0.2
1448.94	-0.2
1449.31	-0.2
1449.68	-0.2
1450.05	-0.2
1450.41	0
1450.78	-0.4
1451.15	-0.4
1451.52	-0.4
1451.89	-0.28
1452.26	-0.28
1452.63	0.12
1453	0.12
1453.36	0.12
1453.73	0
1454.1	0
1454.47	0.12
1454.84	0.12
1455.21	0.16
1455.57	-0.24
1455.94	-0.24
1456.31	-0.36
1456.68	-0.16
1457.05	-0.16
1457.42	0.24
1457.78	0.24
1458.15	0.32
1458.52	0.2
1458.89	0.16
1459.26	0.16
1459.63	0.2
1459.99	0.12
1460.36	0.04
1460.73	0.32
1461.1	0.32
1461.47	0.28
1461.83	0.28
1462.2	0.28
1462.57	0.08
1462.94	0.08
1463.31	0.08
1463.67	0.08
1464.04	-0.12
1464.41	-0.2
1464.78	-0.8
1465.15	-0.64
1465.51	-0.64
1465.88	-0.44
1466.25	-0.44
1466.62	0.16
1466.98	0.2
1467.35	0.24
1467.72	0.24
1468.09	0.24
1468.46	0.24
1468.82	0.04
1469.19	0
1469.56	0.24
1469.93	0.32
1470.29	0.32
1470.66	0.32
1471.03	0.32
1471.4	0.08
1471.76	0.12
1472.13	0.16
1472.5	0.16
1472.86	0.16
1473.23	0.24
1473.6	0.12
1473.97	0.32
1474.33	0.44
1474.7	0.44
1475.07	0.36
1475.44	0.4
1475.8	-1.44334e-17
1476.17	-0.12
1476.54	-0.12
1476.9	-0.08
1477.27	-0.12
1477.64	0.04
1478	0.04
1478.37	0.08
1478.74	0.04
1479.11	0.04
1479.47	0.04
1479.84	0.04
1480.21	0
1480.57	0.12
1480.94	0.12
1481.31	0.12
1481.67	0.12
1482.04	0.16
1482.41	0.08
1482.77	0.28
1483.14	0.28
1483.51	0.36
1483.87	0.4
1484.24	0.36
1484.61	0.16
1484.97	0.16
1485.34	0.12
1485.71	-0.96
1486.07	-0.96
1486.44	-0.96
1486.81	-0.8
1487.17	-0.6
1487.54	0.4
1487.9	0.56
1488.27	0.56
1488.64	0.2
1489	-0.04
1489.37	-0.04
1489.74	-0.08
1490.1	-0.08
1490.47	0.12
1490.83	0.32
1491.2	0.32
1491.57	0.24
1491.93	0.24
1492.3	0.24
1492.66	0.04
1493.03	0.04
1493.4	0
1493.76	0.04
1494.13	0.04
1494.49	0.04
1494.86	0.04
1495.23	0.04
1495.59	0
1495.96	-1.36
1496.32	-1.36
1496.69	-1.36
1497.06	-1.36
1497.42	-2.16
1497.79	-0.8
1498.15	-0.8
1498.52	-0.8
1498.88	-0.68
1499.25	0.12
1499.62	-0.28
1499.98	-0.28
1500.35	-0.28
1500.71	-0.4
1501.08	-0.4
1501.44	0
1501.81	0
1502.17	0
1502.54	0
1502.9	0
1503.27	0
1503.64	0
1504	0.04
1504.37	0.04
1504.73	0.04
1505.1	0.04
1505.46	0.08
1505.83	0.04
1506.19	0.12
1506.56	0.12
1506.92	0.12
1507.29	0.08
1507.65	0.08
1508.02	0
1508.38	0
1508.75	0.04
1509.11	0.04
1509.48	0.08
1509.84	0.08
1510.21	0.08
1510.57	0.04
1510.94	0.04
1511.3	0
1511.67	0
1512.03	0.04
1512.4	0.12
1512.76	0.12
1513.13	-0.88
1513.49	-0.76
1513.85	-0.8
1514.22	-0.88
1514.58	-0.88
1514.95	0.2
1515.31	0.08
1515.68	0.08
1516.04	0.16
1516.41	0.16
1516.77	0.24
1517.14	0.24
1517.5	0.24
1517.86	0.16
1518.23	0.16
1518.59	0
1518.96	0
1519.32	0
1519.69	0
1520.05	0
1520.41	0.24
1520.78	0.24
1521.14	0.24
1521.51	0.24
1521.87	0.24
1522.24	0
1522.6	0
1522.96	0.04
1523.33	0.04
1523.69	0.04
1524.06	0.04
1524.42	0.04
1524.78	0
1525.15	0
1525.51	0.16
1525.88	0.16
1526.24	0.28
1526.6	0.28
1526.97	0.44
1527.33	0.28
1527.69	0.32
1528.06	0.2
1528.42	0.2
1528.79	0.08
1529.15	-0.72
1529.51	-0.76
1529.88	-0.76
1530.24	-0.56
1530.6	-0.6
1530.97	0.28
1531.33	0.28
1531.69	0.28
1532.06	0.08
1532.42	0.16
1532.78	0.08
1533.15	0.08
1533.51	0.08
1533.87	0.08
1534.24	0
1534.6	0.16
1534.96	0.16
1535.33	0.28
1535.69	0.28
1536.05	0.4
1536.42	0.24
1536.78	0.28
1537.14	0.16
1537.51	0.16
1537.87	0.04
1538.23	0.04
1538.6	0
1538.96	0
1539.32	0
1539.68	0
1540.05	0
1540.41	0
1540.77	0
1541.14	0.08
1541.5	0.4
1541.86	0.52
1542.23	0.56
1542.59	0.56
1542.95	0.48
1543.31	0.16
1543.68	0.08
1544.04	0.24
1544.4	0.56
1544.76	0.68
1545.13	0.68
1545.49	0.88
1545.85	0.72
1546.21	0.4
1546.58	0.56
1546.94	0.56
1547.3	0.32
1547.66	0.28
1548.03	0.28
1548.39	0.28
1548.75	0.28
1549.11	0.28
1549.48	0.32
1549.84	0.32
1550.2	0.04
1550.56	0.08
1550.93	0.08
1551.29	0.04
1551.65	0.04
1552.01	0.04
1552.37	0
1552.74	0
1553.1	0
1553.46	0
1553.82	0
1554.18	0
1554.55	0.08
1554.91	0.16
1555.27	0.16
1555.63	0.16
1555.99	0.16
1556.36	0.08
1556.72	-1.6
1557.08	-1.6
1557.44	-1.6
1557.8	-1.52
1558.17	-1.48
1558.53	0.12
1558.89	0.12
1559.25	0.28
1559.61	0.2
1559.97	0.16
1560.34	0.16
1560.7	0.2
1561.06	0.16
1561.42	0.32
1561.78	0.52
1562.14	0.12
1562.5	0.16
1562.87	0.04
1563.23	0.08
1563.59	-0.4
1563.95	2.88669e-17
1564.31	-0.04
1564.67	0.08
1565.03	-0.12
1565.4	0.16
1565.76	0.16
1566.12	0.12
1566.48	0
1566.84	0
1567.2	0.2
1567.56	0
1567.92	0
1568.29	0.04
1568.65	0.04
1569.01	-0.16
1569.37	-0.36
1569.73	-0.36
1570.09	-0.28
1570.45	-0.28
1570.81	-0.28
1571.17	0.12
1571.53	0.12
1571.89	0
1572.26	0
1572.62	0.12
1572.98	0.12
1573.34	0.16
1573.7	0.16
1574.06	0.36
1574.42	0.24
1574.78	0.24
1575.14	0.44
1575.5	0.44
1575.86	-0.56
1576.22	-0.56
1576.58	-0.56
1576.94	-0.8
1577.3	-0.8
1577.67	0
1578.03	0
1578.39	0.08
1578.75	0.08
1579.11	0.12
1579.47	0.12
1579.83	0.32
1580.19	0.24
1580.55	0.24
1580.91	0.2
1581.27	0.28
1581.63	0.08
1581.99	0.2
1582.35	0.32
1582.71	0.36
1583.07	0.28
1583.43	0.28
1583.79	0.24
1584.15	0.12
1584.51	0.08
1584.87	0.24
1585.23	0.24
1585.59	0.16
1585.95	0.32
1586.31	0.32
1586.67	0.32
1587.03	0.32
1587.39	0.36
1587.75	0.28
1588.11	0.28
1588.47	0.12
1588.83	0.12
1589.19	0.28
1589.55	0.2
1589.91	0.28
1590.27	0.44
1590.63	0.44
1590.99	0.52
1591.35	0.52
1591.71	0.44
1592.07	0.32
1592.42	0.32
1592.78	0.04
1593.14	0.04
1593.5	0.68
1593.86	0.88
1594.22	0.88
1594.58	0.96
1594.94	0.96
1595.3	0.44
1595.66	0.2
1596.02	0.2
1596.38	0.12
1596.74	0.44
1597.1	0.32
1597.46	0.32
1597.81	0.32
1598.17	0.32
1598.53	0
1598.89	0
1599.25	0.2
1599.61	0.36
1599.97	0.4
1600.33	0.96
1600.69	0.96
1601.05	0.76
1601.4	0.6
1601.76	0.36
1602.12	-0.12
1602.48	-0.12
1602.84	0.08
1603.2	0.08
1603.56	0.44
1603.92	0.56
1604.28	0.56
1604.63	0.36
1604.99	0.52
1605.35	0.36
1605.71	0.16
1606.07	0.16
1606.43	0.44
1606.79	0.6
1607.14	0.6
1607.5	0.6
1607.86	0.64
1608.22	0.6
1608.58	0.52
1608.94	0.52
1609.29	0.52
1609.65	0.28
1610.01	0.12
1610.37	-0.12
1610.73	-0.12
1611.09	-0.12
1611.44	0.12
1611.8	0.04
1612.16	0.08
1612.52	0.08
1612.88	0.08
1613.24	0.4
1613.59	0.6
1613.95	0.56
1614.31	0.8
1614.67	0.8
1615.03	0.44
1615.38	0.48
1615.74	0.56
1616.1	0.32
1616.46	0.4
1616.82	0.4
1617.17	0.16
1617.53	0.24
1617.89	0.4
1618.25	0.32
1618.6	0.56
1618.96	0.56
1619.32	0.4
1619.68	0.24
1620.04	0.24
1620.39	-0.2
1620.75	-0.2
1621.11	-0.2
1621.47	-0.2
1621.82	-0.2
1622.18	0.04
1622.54	0.08
1622.9	0.08
1623.25	-0.92
1623.61	-0.92
1623.97	-0.96
1624.33	-0.96
1624.68	-1.16
1625.04	-0.08
1625.4	0.08
1625.75	-0.52
1626.11	-0.56
1626.47	-0.36
1626.83	-0.44
1627.18	-0.6
1627.54	0
1627.9	0
1628.26	0.04
1628.61	0.04
1628.97	0.16
1629.33	0.16
1629.68	0.16
1630.04	0.2
1630.4	-0.4
1630.75	-0.52
1631.11	-0.44
1631.47	-0.4
1631.83	-0.48
1632.18	0.28
1632.54	0.28
1632.9	0.2
1633.25	0.16
1633.61	0.16
1633.97	0.32
1634.32	0.56
1634.68	0.56
1635.04	0.56
1635.39	0.56
1635.75	0.36
1636.11	0.12
1636.46	0.12
1636.82	0.12
1637.18	0.12
1637.53	0
1637.89	0
1638.25	0.04
1638.6	0.04
1638.96	0.04
1639.31	0.04
1639.67	0.04
1640.03	0
1640.38	0
1640.74	0
1641.1	0
1641.45	0
1641.81	0
1642.16	0.2
1642.52	0.2
1642.88	0.4
1643.23	-0.2
1643.59	-0.2
1643.95	-0.4
1644.3	-0.16
1644.66	-0.36
1645.01	0.24
1645.37	0.24
1645.73	0.24
1646.08	0
1646.44	0.04
1646.79	-0.56
1647.15	-0.56
1647.51	-0.56
1647.86	-0.56
1648.22	-0.6
1648.57	-0.64
1648.93	-0.52
1649.28	-0.52
1649.64	-0.36
1650	-0.36
1650.35	0.4
1650.71	0.28
1651.06	0.28
1651.42	0.32
1651.77	0.12
1652.13	0
1652.48	0
1652.84	0
1653.2	0.12
1653.55	0.72
1653.91	0.72
1654.26	0.72
1654.62	0.72
1654.97	0.52
1655.33	0.12
1655.68	0.12
1656.04	0.12
1656.39	0.24
1656.75	0.12
1657.1	0.2
1657.46	0.2
1657.81	0.44
1658.17	0.48
1658.52	0.48
1658.88	0.4
1659.23	0.4
1659.59	0.28
1659.94	0.32
1660.3	0.32
1660.65	0.32
1661.01	0.6
1661.36	0.48
1661.72	0.48
1662.07	0.48
1662.43	0.48
1662.78	0.2
1663.14	0.32
1663.49	0.12
1663.85	0.2
1664.2	0.2
1664.56	0.24
1664.91	-1.56
1665.27	-1.32
1665.62	-1.2
1665.98	-1.16
1666.33	-1.2
1666.69	0.48
1667.04	0.24
1667.39	0.32
1667.75	0.28
1668.1	0.84
1668.46	0.84
1668.81	0.96
1669.17	0.88
1669.52	1.12
1669.88	0.6
1670.23	0.76
1670.58	1.24
1670.94	1.32
1671.29	1.4
1671.65	1.6
1672	1.48
1672.36	1.16
1672.71	1.44
1673.06	1.2
1673.42	1.12
1673.77	1.64
1674.13	1.6
1674.48	1.64
1674.83	1.96
1675.19	1.8
1675.54	1.64
1675.9	1.52
1676.25	0.92
1676.6	0.88
1676.96	0.88
1677.31	0.56
1677.67	0.64
1678.02	0.68
1678.37	0.64
1678.73	0.64
1679.08	0.64
1679.43	0.44
1679.79	0.44
1680.14	0.4
1680.5	-0.04
1680.85	0.2
1681.2	0.56
1681.56	0.72
1681.91	0.44
1682.26	0.92
1682.62	0.96
1682.97	0.8
1683.32	1.12
1683.68	1.44
1684.03	1.68
1684.38	1.88
1684.74	2
1685.09	1.8
1685.44	1.48
1685.8	1.24
1686.15	0.96
1686.5	0.72
1686.86	0.8
1687.21	1
1687.56	1.36
1687.92	1.36
1688.27	1.56
1688.62	1.36
1688.98	1.36
1689.33	1
1689.68	0.96
1690.03	0.88
1690.39	0.68
1690.74	0.72
1691.09	0.92
1691.45	0.6
1691.8	0.92
1692.15	1.24
1692.5	1.6
1692.86	1.56
1693.21	1.64
1693.56	1.28
1693.92	1.32
1694.27	0.12
1694.62	0.92
1694.97	1.32
1695.33	1.16
1695.68	0.88
1696.03	1.84
1696.38	0.84
1696.74	0.44
1697.09	0.52
1697.44	0.68
1697.79	0.68
1698.15	0.72
1698.5	0.92
1698.85	1.48
1699.2	0.44
1699.56	0.44
1699.91	0.52
1700.26	0.52
1700.61	0.04
1700.97	1.32
1701.32	0.96
1701.67	1.28
1702.02	1.4
1702.37	1.64
1702.73	1.52
1703.08	1.92
1703.43	1.48
1703.78	1.52
1704.13	1.12
1704.49	1.36
1704.84	0.96
1705.19	1.2
1705.54	1.56
1705.89	1.56
1706.25	1.4
1706.6	1.44
1706.95	1.44
1707.3	0.72
1707.65	1.04
1708.01	1.36
1708.36	1.32
1708.71	1.36
1709.06	1.6
1709.41	1.76
1709.76	1.4
1710.12	1.76
1710.47	1.92
1710.82	1.88
1711.17	1.72
1711.52	1.32
1711.87	1.56
1712.23	1.48
1712.58	1.6
1712.93	1.28
1713.28	1.52
1713.63	1.08
1713.98	1.32
1714.33	1.36
1714.69	1.48
1715.04	1.44
1715.39	1.6
1715.74	1.88
1716.09	1.6
1716.44	1.76
1716.79	1.64
1717.14	1.96
1717.5	1.28
1717.85	1.44
1718.2	1.48
1718.55	1.52
1718.9	1.28
1719.25	1.36
1719.6	1.44
1719.95	1.28
1720.3	1.44
1720.65	1.08
1721.01	0.8
1721.36	0.52
1721.71	0.84
1722.06	0.04
1722.41	-0.16
1722.76	-0.08
1723.11	0.44
1723.46	0.44
1723.81	1.24
1724.16	1.84
1724.51	2.08
1724.86	1.84
1725.21	1.76
1725.56	1.92
1725.92	2.2
1726.27	2.48
1726.62	2.32
1726.97	2.08
1727.32	1.56
1727.67	1.16
1728.02	1
1728.37	1.24
1728.72	1.32
1729.07	1.96
1729.42	2.04
1729.77	1.88
1730.12	1.88
1730.47	1.72
1730.82	1.16
1731.17	0.76
1731.52	1.12
1731.87	0.76
1732.22	0.84
1732.57	1.8
1732.92	2.04
1733.27	1.72
1733.62	1.92
1733.97	2.04
1734.32	1.56
1734.67	1.48
1735.02	1.2
1735.37	1.08
1735.72	1.04
1736.07	1.04
1736.42	1.4
1736.77	1.48
1737.12	1.52
1737.47	1.92
1737.82	1.72
1738.17	1.36
1738.52	1.24
1738.87	1.64
1739.22	1.16
1739.57	1.64
1739.92	1.48
1740.27	1.92
1740.62	1.44
1740.97	1.52
1741.32	0.76
1741.67	0.76
1742.02	0.32
1742.37	0.32
1742.72	0.28
1743.06	0.64
1743.41	0.76
1743.76	0.76
1744.11	0.04
1744.46	-0.16
1744.81	-0.44
1745.16	-0.32
1745.51	-0.24
1745.86	0.72
1746.21	0.72
1746.56	0.84
1746.91	0.84
1747.26	1.24
1747.6	0.92
1747.95	1.2
1748.3	1.12
1748.65	0.88
1749	0.48
1749.35	0.6
1749.7	0.72
1750.05	0.92
1750.4	1.04
1750.75	1.2
1751.09	1.08
1751.44	0.68
1751.79	-0.2
1752.14	-0.04
1752.49	-0.28
1752.84	-0.28
1753.19	-0.12
1753.54	0.56
1753.88	0.44
1754.23	0.68
1754.58	0.68
1754.93	1.16
1755.28	1.08
1755.63	1.12
1755.98	1.28
1756.32	1.52
1756.67	0.92
1757.02	0.88
1757.37	0.68
1757.72	1.12
1758.07	0.88
1758.42	0.84
1758.76	1.28
1759.11	1.16
1759.46	0.32
1759.81	0.72
1760.16	0.76
1760.5	0.44
1760.85	0.52
1761.2	0.76
1761.55	1.56
1761.9	1.6
1762.25	1.64
1762.59	3.4
1762.94	3.8
1763.29	2.68
1763.64	3.84
1763.99	3.84
1764.33	3.04
1764.68	3.04
1765.03	3.52
1765.38	4.96
1765.73	5.84
1766.07	5.16
1766.42	7.12
1766.77	7
1767.12	6.2
1767.46	6.92
1767.81	7.76
1768.16	8.24
1768.51	10.12
1768.85	9.32
1769.2	11.88
1769.55	13.6
1769.9	12.48
1770.25	12.64
1770.59	15.4
1770.94	14.12
1771.29	14.84
1771.64	16.12
1771.98	17.04
1772.33	18.08
1772.68	18.32
1773.02	18.72
1773.37	21.6
1773.72	23.48
1774.07	25.28
1774.41	29.4
1774.76	28.68
1775.11	29.36
1775.46	29.12
1775.8	25.72
1776.15	24.72
1776.5	27.44
1776.84	26.56
1777.19	30.08
1777.54	35.96
1777.89	40.56
1778.23	42.32
1778.58	45.48
1778.93	48.16
1779.27	47.52
1779.62	44.16
1779.97	46
1780.31	45.84
1780.66	44.92
1781.01	44.12
1781.35	48.04
1781.7	52.56
1782.05	56.44
1782.39	57.36
1782.74	59.48
1783.09	61.08
1783.43	60.4
1783.78	60.76
1784.13	64.36
1784.47	65.8
1784.82	65.64
1785.17	62.36
1785.51	59.44
1785.86	61.72
1786.21	67.28
1786.55	71.68
1786.9	83.92
1787.25	90.8
1787.59	90.96
1787.94	90.56
1788.29	87.28
1788.63	80.2
1788.98	80.72
1789.32	81.44
1789.67	80.48
1790.02	77.84
1790.36	81.32
1790.71	89.8
1791.06	95.6
1791.4	104.84
1791.75	115.8
1792.09	129.16
1792.44	137.12
1792.79	137.48
1793.13	143
1793.48	149.32
1793.82	143.36
1794.17	134.08
1794.52	130.28
1794.86	125.92
1795.21	120.08
1795.55	102.2
1795.9	89.96
1796.24	106.08
1796.59	121.68
1796.94	137.28
1797.28	159.6
1797.63	175.6
1797.97	166.64
1798.32	149
1798.66	150.08
1799.01	153.16
1799.36	147.76
1799.7	152.96
1800.05	158.68
1800.39	142.44
1800.74	152.16
1801.08	179.48
1801.43	192.88
1801.77	195.32
1802.12	204.12
1802.46	203
1802.81	187.16
1803.15	171.8
1803.5	166.68
1803.85	153.88
1804.19	136.16
1804.54	135.68
1804.88	131.96
1805.23	133.4
1805.57	161.76
1805.92	189.04
1806.26	194.12
1806.61	195.64
1806.95	212.48
1807.3	222.48
1807.64	224.56
1807.99	230.48
1808.33	232.28
1808.68	213.96
1809.02	217.6
1809.37	228.64
1809.71	236.76
1810.06	248.2
1810.4	250.92
1810.75	223.68
1811.09	221.4
1811.43	239.8
1811.78	276.4
1812.12	315.48
1812.47	335.12
1812.81	328.28
1813.16	310.84
1813.5	280.84
1813.85	260.32
1814.19	250.8
1814.54	229.24
1814.88	212.72
1815.23	192.92
1815.57	159.68
1815.91	130.08
1816.26	140
1816.6	167.8
1816.95	187.92
1817.29	218.28
1817.64	261
1817.98	295.48
1818.32	301.32
1818.67	311.08
1819.01	328.6
1819.36	322.24
1819.7	286.52
1820.05	271.4
1820.39	270.6
1820.73	251.76
1821.08	251.88
1821.42	250.92
1821.77	225.64
1822.11	197.12
1822.45	187
1822.8	171.24
1823.14	153.84
1823.49	168.48
1823.83	214.52
1824.17	251.52
1824.52	276.84
1824.86	302.88
1825.2	303.2
1825.55	269.68
1825.89	226.12
1826.24	208.12
1826.58	235
1826.92	245.2
1827.27	252.04
1827.61	278.8
1827.95	276.96
1828.3	237.36
1828.64	214
1828.98	184.88
1829.33	165.32
1829.67	201
1830.02	218.2
1830.36	234.4
1830.7	283.84
1831.05	302.44
1831.39	276
1831.73	268.36
1832.08	257.88
1832.42	228.2
1832.76	215.88
1833.1	197.84
1833.45	180.56
1833.79	174.12
1834.13	164.68
1834.48	160.56
1834.82	168
1835.16	169.12
1835.51	168.44
1835.85	166.6
1836.19	152.24
1836.54	131.04
1836.88	119.76
1837.22	98.64
1837.56	89.72
1837.91	98.8
1838.25	117.84
1838.59	137.52
1838.94	155.72
1839.28	156.32
1839.62	149.76
1839.96	143.88
1840.31	119.76
1840.65	99.72
1840.99	109.72
1841.34	143.16
1841.68	155.88
1842.02	178.32
1842.36	200.88
1842.71	186.44
1843.05	143.08
1843.39	138.6
1843.73	148.44
1844.08	163.8
1844.42	200.32
1844.76	223.6
1845.1	212.4
1845.45	189.52
1845.79	172.6
1846.13	153.52
1846.47	141.04
1846.81	131.28
1847.16	128.4
1847.5	136.6
1847.84	143.76
1848.18	152.16
1848.53	164.16
1848.87	168.12
1849.21	155.04
1849.55	137.28
1849.89	123.08
1850.24	113
1850.58	105.84
1850.92	95.4
1851.26	91.76
1851.6	94.88
1851.95	89.88
1852.29	85.4
1852.63	86.28
1852.97	79.48
1853.31	67.4
1853.66	59.32
1854	51.04
1854.34	56.08
1854.68	73.28
1855.02	76.6
1855.36	81.76
1855.71	87.24
1856.05	74.8
1856.39	54.64
1856.73	45.96
1857.07	39.4
1857.41	38.76
1857.76	38.28
1858.1	34
1858.44	33.4
1858.78	35.4
1859.12	27.88
1859.46	23.76
1859.8	21.24
1860.15	18.04
1860.49	27.56
1860.83	39.32
1861.17	42.44
1861.51	45.44
1861.85	47.64
1862.19	32.16
1862.53	24.2
1862.88	24.56
1863.22	22.4
1863.56	21.6
1863.9	22.92
1864.24	19.64
1864.58	16.84
1864.92	15.64
1865.26	13.12
1865.6	11.24
1865.94	7.48
1866.29	4.16
1866.63	2.8
1866.97	2.68
1867.31	2.6
1867.65	4.6
1867.99	5.72
1868.33	6.52
1868.67	6.92
1869.01	10.64
1869.35	20.6
1869.69	28.72
1870.03	35.12
1870.37	40.36
1870.72	37.52
1871.06	26.56
1871.4	19.36
1871.74	12.44
1872.08	10.2
1872.42	17.6
1872.76	22.76
1873.1	21.76
1873.44	22.12
1873.78	18.52
1874.12	10.84
1874.46	12.6
1874.8	18.96
1875.14	24.12
1875.48	26.72
1875.82	28.44
1876.16	24.04
1876.5	19.76
1876.84	15.8
1877.18	14.16
1877.52	10.4
1877.86	8.04
1878.2	6.76
1878.54	5.04
1878.88	3.8
1879.22	6.6
1879.56	7.68
1879.9	7.24
1880.24	8.72
1880.58	12.52
1880.92	13.04
1881.26	12.76
1881.6	12.4
1881.94	13.2
1882.28	14.12
1882.62	19.24
1882.96	24.2
1883.3	26.68
1883.64	25.88
1883.98	24.12
1884.32	18.56
1884.66	13.92
1885	13.4
1885.34	16.92
1885.68	17.88
1886.02	18.52
1886.36	19.6
1886.7	18.88
1887.04	19.16
1887.38	18.68
1887.72	22.52
1888.06	23.72
1888.39	26.48
1888.73	29
1889.07	40.4
1889.41	40.16
1889.75	42.04
1890.09	47.72
1890.43	47
1890.77	34.36
1891.11	30.64
1891.45	29.28
1891.79	23.56
1892.13	21.88
1892.47	27.56
1892.8	31.12
1893.14	35.04
1893.48	39.16
1893.82	42.36
1894.16	38
1894.5	37.44
1894.84	36.52
1895.18	33.68
1895.52	33.24
1895.86	39.28
1896.19	41.72
1896.53	41.72
1896.87	46.92
1897.21	48.28
1897.55	48.32
1897.89	51.56
1898.23	55.4
1898.57	51.32
1898.9	50.72
1899.24	50.16
1899.58	47.4
1899.92	45.4
1900.26	48.92
1900.6	50.44
1900.94	51.68
1901.27	54.16
1901.61	55.72
1901.95	56.08
1902.29	57.88
1902.63	59.56
1902.97	60.04
1903.3	60.2
1903.64	62.2
1903.98	61.72
1904.32	62.36
1904.66	62.84
1905	65.8
1905.33	65.68
1905.67	68.08
1906.01	69.8
1906.35	71.56
1906.69	70.04
1907.02	70.64
1907.36	68.72
1907.7	67.6
1908.04	65.92
1908.38	68.52
1908.71	67.88
1909.05	69.96
1909.39	70.96
1909.73	71.12
1910.07	69
1910.4	68.12
1910.74	67.4
1911.08	68.32
1911.42	69.08
1911.76	72.32
1912.09	73.12
1912.43	73.84
1912.77	74.48
1913.11	75.96
1913.44	74.84
1913.78	76.96
1914.12	78.88
1914.46	78.72
1914.79	79.2
1915.13	81.08
1915.47	80.56
1915.81	80.48
1916.14	81.68
1916.48	82.96
1916.82	80.68
1917.16	82.16
1917.49	82.84
1917.83	81.88
1918.17	81.08
1918.5	84.04
1918.84	84.36
1919.18	84.84
1919.52	85.6
1919.85	85.64
1920.19	83.04
1920.53	83.84
1920.87	80.68
1921.2	80.32
1921.54	81.32
1921.88	81.52
1922.21	80.24
1922.55	83.8
1922.89	84.92
1923.22	82.28
1923.56	84.4
1923.9	85.48
1924.23	83.64
1924.57	83.56
1924.91	86.04
1925.25	83.88
1925.58	84.08
1925.92	85.12
1926.26	86.8
1926.59	85.8
1926.93	88.68
1927.27	88.72
1927.6	89.08
1927.94	86.68
1928.28	88.92
1928.61	87.64
1928.95	88.4
1929.29	89.2
1929.62	92.76
1929.96	91.04
1930.29	92.04
1930.63	93.52
1930.97	92
1931.3	91.04
1931.64	93.6
1931.98	92.08
1932.31	89.68
1932.65	92.92
1932.99	91.48
1933.32	91.28
1933.66	92.6
1933.99	93.8
1934.33	94
1934.67	95.08
1935	95.4
1935.34	95.84
1935.67	98.68
1936.01	97.48
1936.35	97.16
1936.68	97.44
1937.02	97.64
1937.35	96.12
1937.69	97.12
1938.03	98
1938.36	94.64
1938.7	96.68
1939.03	96.12
1939.37	95.44
1939.7	95.96
1940.04	100.2
1940.38	97.88
1940.71	98.68
1941.05	99.76
1941.38	99.6
1941.72	100.84
1942.05	102.64
1942.39	101.96
1942.73	102.16
1943.06	103.96
1943.4	102
1943.73	102.12
1944.07	103.88
1944.4	104.36
1944.74	101.56
1945.07	102.4
1945.41	103.8
1945.74	101.16
1946.08	102.4
1946.42	104.48
1946.75	104.2
1947.09	101.36
1947.42	104.28
1947.76	102.6
1948.09	101.8
1948.43	102.2
1948.76	103.44
1949.1	101.84
1949.43	103.68
1949.77	104.72
1950.1	104.32
1950.44	105
1950.77	106.48
1951.11	106.28
1951.44	105.44
1951.78	105.76
1952.11	106.36
1952.45	104.76
1952.78	104.04
1953.12	105.12
1953.45	105.28
1953.79	102.64
1954.12	103.96
1954.46	103.12
1954.79	102.72
1955.12	102.52
1955.46	105.36
1955.79	102.16
1956.13	100.36
1956.46	99.32
1956.8	99.92
1957.13	96.68
1957.47	98.32
1957.8	100.28
1958.14	99.28
1958.47	97.28
1958.8	98.48
1959.14	99.68
1959.47	97.6
1959.81	97.8
1960.14	98.04
1960.48	96.64
1960.81	95.96
1961.14	96.52
1961.48	96.96
1961.81	96.08
1962.15	95.32
1962.48	95.92
1962.82	94.52
1963.15	91.64
1963.48	90.8
1963.82	92.44
1964.15	89.84
1964.49	89.12
1964.82	91.36
1965.15	91.4
1965.49	88.48
1965.82	87.72
1966.16	87.36
1966.49	86.28
1966.82	84.88
1967.16	84.52
1967.49	84.68
1967.83	84.56
1968.16	81.96
1968.49	81.48
1968.83	81.92
1969.16	79.68
1969.49	77.88
1969.83	78.84
1970.16	77.48
1970.49	75.24
1970.83	74.84
1971.16	75
1971.5	73.24
1971.83	71.32
1972.16	72.08
1972.5	70.12
1972.83	67.84
1973.16	66.32
1973.5	67.32
1973.83	67.04
1974.16	66.2
1974.5	65.36
1974.83	64.84
1975.16	62.32
1975.5	58.68
1975.83	58.72
1976.16	58.68
1976.49	56.48
1976.83	56.2
1977.16	56.04
1977.49	55.44
1977.83	54.08
1978.16	54.12
1978.49	53.52
1978.83	51.76
1979.16	50.16
1979.49	49.04
1979.83	48.24
1980.16	46.44
1980.49	46.56
1980.82	44.04
1981.16	42.92
1981.49	41.8
1981.82	41.72
1982.15	39.88
1982.49	39.32
1982.82	38.52
1983.15	38.2
1983.49	36.84
1983.82	34.96
1984.15	34
1984.48	32.24
1984.82	29.52
1985.15	27.68
1985.48	27.76
1985.81	28.2
1986.15	29.44
1986.48	30.12
1986.81	29.88
1987.14	28.12
1987.48	26.96
1987.81	24.88
1988.14	22.56
1988.47	22.64
1988.81	23.72
1989.14	23.16
1989.47	21.4
1989.8	21.08
1990.13	20.12
1990.47	18.6
1990.8	17.8
1991.13	18.36
1991.46	17.72
1991.79	15.16
1992.13	13.28
1992.46	13.36
1992.79	12.44
1993.12	11.72
1993.45	11.64
1993.79	12.08
1994.12	9.72
1994.45	8.44
1994.78	8.52
1995.11	9.44
1995.45	9.16
1995.78	9.44
1996.11	8.76
1996.44	7.52
1996.77	6.32
1997.1	5.84
1997.44	5.88
1997.77	6.24
1998.1	7.12
1998.43	7.52
1998.76	6.88
1999.09	5.76
1999.43	4.52
1999.76	4.12
2000.09	3.32
2000.42	3.36
2000.75	2.48
2001.08	3.4
2001.41	3.6
2001.75	4
2002.08	4.28
2002.41	4.64
2002.74	4.2
2003.07	2.88
2003.4	2.08
2003.73	1.28
2004.06	2.4
2004.4	2.64
2004.73	3.48
2005.06	3.68
2005.39	4.36
2005.72	3.72
2006.05	3.28
2006.38	3.24
2006.71	3.6
2007.04	3.44
2007.37	3.32
2007.71	5.04
2008.04	5.68
2008.37	6.48
2008.7	7.04
2009.03	7.16
2009.36	5.52
2009.69	5.88
2010.02	5.48
2010.35	6.36
2010.68	6.48
2011.01	6.92
2011.34	6.2
2011.67	5.56
2012.01	4.88
2012.34	4.8
2012.67	5.64
2013	5
2013.33	6.52
2013.66	5.88
2013.99	6.24
2014.32	5.76
2014.65	6.4
2014.98	5.12
2015.31	4.96
2015.64	4.64
2015.97	5.12
2016.3	6.16
2016.63	7.12
2016.96	8.32
2017.29	8.4
2017.62	7.96
2017.95	6.72
2018.28	5.8
2018.61	6.04
2018.94	7
2019.27	6.68
2019.6	7.8
2019.93	9.28
2020.26	8.28
2020.59	7.44
2020.92	8.84
2021.25	8.16
2021.58	7.64
2021.91	8.96
2022.24	9.68
2022.57	9.16
2022.9	8.6
2023.23	8.8
2023.56	7.84
2023.89	8.08
2024.22	8.96
2024.55	9.68
2024.88	9.84
2025.21	9.72
2025.54	9.04
2025.87	8.56
2026.2	7.84
2026.53	7.28
2026.86	7.32
2027.19	7.08
2027.52	6.36
2027.85	7.88
2028.18	8.48
2028.51	9.2
2028.84	10.32
2029.16	11.88
2029.49	11.12
2029.82	10.64
2030.15	10.56
2030.48	9.64
2030.81	8.92
2031.14	8.08
2031.47	7.68
2031.8	7.44
2032.13	8.08
2032.46	7.16
2032.79	7.52
2033.12	6.76
2033.44	6.92
2033.77	6.52
2034.1	6.12
2034.43	7.16
2034.76	8.08
2035.09	7.52
2035.42	7.32
2035.75	8.48
2036.08	8.12
2036.41	8.12
2036.73	9.24
2037.06	8.24
2037.39	7.44
2037.72	7.48
2038.05	6.96
2038.38	5.32
2038.71	6.6
2039.04	5.52
2039.36	5.24
2039.69	6
2040.02	5.68
2040.35	5.64
2040.68	7
2041.01	6.64
2041.34	5.32
2041.66	5.76
2041.99	4.96
2042.32	4
2042.65	3.52
2042.98	3.88
2043.31	3.92
2043.63	5.56
2043.96	6.56
2044.29	6.96
2044.62	7
2044.95	6.28
2045.28	4.96
2045.6	4.4
2045.93	4.84
2046.26	4.88
2046.59	5.4
2046.92	5.52
2047.24	5
2047.57	3.88
2047.9	3.92
2048.23	3.8
2048.56	3.2
2048.88	2.88
2049.21	3.84
2049.54	3.24
2049.87	3.24
2050.2	3.4
2050.52	3.44
2050.85	3.12
2051.18	3.28
2051.51	2.96
2051.83	2.76
2052.16	3.28
2052.49	2.44
2052.82	3
2053.15	3.4
2053.47	3.2
2053.8	2.88
2054.13	2.92
2054.46	2.28
2054.78	2.24
2055.11	2.56
2055.44	3.08
2055.77	3.56
2056.09	3.32
2056.42	2.88
2056.75	3.12
2057.08	2.36
2057.4	2.04
2057.73	2.32
2058.06	2.48
2058.38	2.28
2058.71	2.6
2059.04	2.4
2059.37	2.36
2059.69	2.68
2060.02	2.64
2060.35	2.16
2060.67	2.52
2061	2.36
2061.33	2.28
2061.66	2.12
2061.98	2.24
2062.31	1.76
2062.64	2.68
2062.96	2.16
2063.29	1.96
2063.62	2.68
2063.94	3.24
2064.27	2.32
2064.6	1.4
2064.92	1.56
2065.25	0.68
2065.58	0.2
2065.91	-0.08
2066.23	0.64
2066.56	0.4
2066.89	0.76
2067.21	0.8
2067.54	0.84
2067.87	1.08
2068.19	1.08
2068.52	1.28
2068.84	1.04
2069.17	1.12
2069.5	1.12
2069.82	0.8
2070.15	0.36
2070.48	0.4
2070.8	0.36
2071.13	0.72
2071.46	1.48
2071.78	1.4
2072.11	1.36
2072.43	1.24
2072.76	0.8
2073.09	0.52
2073.41	0.48
2073.74	0.52
2074.07	0.52
2074.39	0.68
2074.72	0.4
2075.04	0.52
2075.37	0.52
2075.7	0.52
2076.02	0.24
2076.35	0.2
2076.67	0.4
2077	0.52
2077.33	0.64
2077.65	1.08
2077.98	1.24
2078.3	0.96
2078.63	0.84
2078.95	0.8
2079.28	0.32
2079.61	-0.36
2079.93	-0.36
2080.26	-0.32
2080.58	-0.4
2080.91	-0.4
2081.23	0.28
2081.56	0.36
2081.89	0.84
2082.21	0.92
2082.54	0.92
2082.86	0.76
2083.19	0.64
2083.51	0.12
2083.84	0.16
2084.16	0.2
2084.49	0.48
2084.81	0.52
2085.14	0.72
2085.46	1.04
2085.79	1.16
2086.12	0.88
2086.44	0.84
2086.77	0.68
2087.09	0.28
2087.42	0.2
2087.74	0.28
2088.07	0.32
2088.39	0.24
2088.72	0.36
2089.04	0.4
2089.37	0.64
2089.69	0.6
2090.02	0.92
2090.34	0.76
2090.67	1.32
2090.99	-0.72
2091.32	-0.72
2091.64	-0.84
2091.97	-0.56
2092.29	-1.2
2092.62	0.8
2092.94	0.8
2093.26	0.64
2093.59	0.36
2093.91	-0.88
2094.24	-1.16
2094.56	-0.84
2094.89	-0.76
2095.21	-0.6
2095.54	0.76
2095.86	0.76
2096.19	0.56
2096.51	0.44
2096.84	0.56
2097.16	0.4
2097.48	0.4
2097.81	0.6
2098.13	0.68
2098.46	0.52
2098.78	0.64
2099.11	0.72
2099.43	0.56
2099.75	0.6
2100.08	0.48
2100.4	0.36
2100.73	0.6
2101.05	0.44
2101.38	0.32
2101.7	0.8
2102.02	0.8
2102.35	0.68
2102.67	0.84
2103	0.92
2103.32	0.64
2103.64	0.96
2103.97	0.96
2104.29	0.8
2104.62	0.76
2104.94	0.6
2105.26	-0.28
2105.59	-0.4
2105.91	-0.24
2106.23	-0.24
2106.56	0.36
2106.88	0.92
2107.21	0.84
2107.53	0.88
2107.85	0.92
2108.18	0.28
2108.5	0.6
2108.82	0.6
2109.15	0.44
2109.47	0.36
2109.79	0.44
2110.12	0.12
2110.44	0.48
2110.76	0.44
2111.09	0.44
2111.41	0.52
2111.73	0.52
2112.06	0.48
2112.38	0.48
2112.7	-0.12
2113.03	-0.28
2113.35	-0.28
2113.67	-0.52
2114	-0.44
2114.32	0.16
2114.64	0.16
2114.97	0.16
2115.29	0.08
2115.61	0.4
2115.94	0.52
2116.26	0.76
2116.58	0.88
2116.91	0.04
2117.23	-0.36
2117.55	-0.36
2117.87	-0.56
2118.2	-0.68
2118.52	0.16
2118.84	0.16
2119.17	0.08
2119.49	0.04
2119.81	0.04
2120.13	0.28
2120.46	0.28
2120.78	-0.56
2121.1	-0.56
2121.42	-0.4
2121.75	-0.52
2122.07	-0.52
2122.39	0.28
2122.72	0.48
2123.04	0.32
2123.36	0.2
2123.68	0.2
2124.01	0.2
2124.33	0.08
2124.65	0.08
2124.97	0.08
2125.29	0.08
2125.62	0.08
2125.94	0
2126.26	0
2126.58	0
2126.91	-1
2127.23	-0.8
2127.55	-0.56
2127.87	-0.4
2128.2	-0.4
2128.52	0.72
2128.84	0.64
2129.16	0.48
2129.48	0.36
2129.81	0.36
2130.13	0.24
2130.45	0.24
2130.77	0.16
2131.09	0.12
2131.42	0.16
2131.74	0.36
2132.06	0.28
2132.38	0.28
2132.7	0.48
2133.02	0.44
2133.35	0.36
2133.67	0.44
2133.99	0.44
2134.31	-0.16
2134.63	0.56
2134.96	0.48
2135.28	0.64
2135.6	0.64
2135.92	1.24
2136.24	0.72
2136.56	0.68
2136.88	0.4
2137.21	0.4
2137.53	0.2
2137.85	0
2138.17	-0.36
2138.49	-0.36
2138.81	-0.36
2139.13	-0.32
2139.46	-0.32
2139.78	0.08
2140.1	0.12
2140.42	0.36
2140.74	0.32
2141.06	0.44
2141.38	0.4
2141.7	0.4
2142.03	0.28
2142.35	0.32
2142.67	0.28
2142.99	0.28
2143.31	0.24
2143.63	0.12
2143.95	0.08
2144.27	0
2144.59	0.48
2144.91	0.28
2145.24	0.28
2145.56	0.28
2145.88	0.28
2146.2	-0.16
2146.52	0.04
2146.84	0.04
2147.16	0.12
2147.48	0.12
2147.8	0.08
2148.12	0.08
2148.44	0.08
2148.76	0
2149.08	0.24
2149.41	0.24
2149.73	0.24
2150.05	0.24
2150.37	0.24
2150.69	0
2151.01	0
2151.33	0
2151.65	0.12
2151.97	0.12
2152.29	0.12
2152.61	-0.24
2152.93	-0.24
2153.25	-0.32
2153.57	0.12
2153.89	0.16
2154.21	0.12
2154.53	0.12
2154.85	0.08
2155.17	-0.36
2155.49	-0.6
2155.81	-0.12
2156.13	-0.12
2156.45	0.12
2156.77	0.12
2157.09	0.32
2157.41	0.28
2157.73	0.28
2158.05	0.04
2158.37	0.08
2158.69	0.12
2159.01	0.08
2159.33	0.08
2159.65	0.08
2159.97	0.04
2160.29	0.2
2160.61	0.2
2160.93	0.2
2161.25	0.2
2161.57	0.24
2161.89	0.04
2162.21	0.04
2162.53	0.04
2162.85	-0.56
2163.17	-0.6
2163.49	-0.44
2163.81	-0.44
2164.13	-0.44
2164.45	-0.32
2164.77	-0.32
2165.08	-0.32
2165.4	8.4378e-17
2165.72	8.4378e-17
2166.04	0.48
2166.36	0.48
2166.68	0.32
2167	0
2167.32	0
2167.64	0
2167.96	0
2168.28	0
2168.6	0.24
2168.92	0.24
2169.24	0.24
2169.55	0.52
2169.87	0.52
2170.19	0.28
2170.51	0.28
2170.83	0.28
2171.15	0
2171.47	0
2171.79	0.32
2172.11	0.32
2172.43	0.32
2172.74	0.32
2173.06	0.6
2173.38	0.32
2173.7	0.32
2174.02	0.32
2174.34	0.32
2174.66	0.04
2174.98	0
2175.29	0.2
2175.61	0.2
2175.93	0.2
2176.25	0.2
2176.57	0.2
2176.89	0.04
2177.21	0.04
2177.52	0.04
2177.84	0.16
2178.16	0.16
2178.48	0.12
2178.8	0.12
2179.12	0.12
2179.43	0
2179.75	-1
2180.07	-1
2180.39	-1
2180.71	-1
2181.03	-1
2181.34	0.08
2181.66	0.12
2181.98	0.12
2182.3	0.12
2182.62	0.12
2182.93	-0.36
2183.25	-0.4
2183.57	-0.4
2183.89	-0.28
2184.21	-0.28
2184.52	0.12
2184.84	0.12
2185.16	0.12
2185.48	0.08
2185.8	0.08
2186.11	0.08
2186.43	0.08
2186.75	0.08
2187.07	-0.4
2187.39	-1.2
2187.7	-0.88
2188.02	-1.48
2188.34	-1.48
2188.66	-1
2188.97	-0.12
2189.29	-0.44
2189.61	0.16
2189.93	0.24
2190.24	0.16
2190.56	0.08
2190.88	0.28
2191.2	0.28
2191.51	0.28
2191.83	0.32
2192.15	0.32
2192.47	0.12
2192.78	0.12
2193.1	0.08
2193.42	0.04
2193.74	0.04
2194.05	0.04
2194.37	0.16
2194.69	0.12
2195	-0.28
2195.32	-0.28
2195.64	-0.2
2195.96	-0.24
2196.27	-0.24
2196.59	-0.4
2196.91	-0.4
2197.22	-0.48
2197.54	-0.32
2197.86	-0.32
2198.18	0.32
2198.49	0.32
2198.81	0.32
2199.13	0.08
2199.44	0.08
2199.76	0
2200.08	0
2200.39	0
2200.71	0.12
2201.03	0.12
2201.34	0.12
2201.66	0.12
2201.98	0.2
2202.29	0.12
2202.61	0.12
2202.93	0.12
2203.24	0.12
2203.56	0.04
2203.88	0
2204.19	0.08
2204.51	0.24
2204.83	0.24
2205.14	0.4
2205.46	0.4
2205.78	0.32
2206.09	0.2
2206.41	0.12
2206.72	-0.08
2207.04	-0.08
2207.36	-0.48
2207.67	-0.28
2207.99	-0.2
2208.31	-0.16
2208.62	-0.16
2208.94	0.24
2209.25	0
2209.57	0.08
2209.89	0.24
2210.2	0.24
2210.52	0.28
2210.83	0.28
2211.15	0.2
2211.47	0.04
2211.78	0.04
2212.1	-0.4
2212.41	-0.36
2212.73	-0.36
2213.05	-0.28
2213.36	-0.24
2213.68	0.16
2213.99	0.12
2214.31	0.16
2214.62	0.28
2214.94	0.36
2215.26	0.4
2215.57	0.4
2215.89	0.36
2216.2	0.16
2216.52	0.04
2216.83	0
2217.15	0
2217.46	0
2217.78	0
2218.1	-0.2
2218.41	-0.2
2218.73	-0.2
2219.04	-0.2
2219.36	-0.2
2219.67	0
2219.99	0.04
2220.3	0.04
2220.62	0.04
2220.93	0.16
2221.25	0.16
2221.56	0.12
2221.88	0.12
2222.19	0.2
2222.51	0.08
2222.82	-1.32
2223.14	-1.28
2223.45	-1.28
2223.77	-1.36
2224.08	-1.2
2224.4	0.24
2224.71	0.36
2225.03	0.36
2225.34	0.36
2225.66	-0.84
2225.97	-0.88
2226.29	-0.96
2226.6	-0.96
2226.92	-0.96
2227.23	0.08
2227.55	0.08
2227.86	0
2228.18	0
2228.49	0
2228.81	0
2229.12	0
2229.44	0.16
2229.75	0.16
2230.07	0.16
2230.38	0.16
2230.69	0.16
2231.01	0.04
2231.32	0.04
2231.64	0.04
2231.95	0.04
2232.27	0.04
2232.58	0.12
2232.9	0.12
2233.21	0.12
2233.52	0.12
2233.84	0.16
2234.15	0.04
2234.47	0.04
2234.78	0.04
2235.1	0.04
2235.41	0.08
2235.72	0.16
2236.04	0.16
2236.35	0.16
2236.67	-0.44
2236.98	-0.52
2237.29	-0.6
2237.61	-0.6
2237.92	-0.6
2238.24	0
2238.55	0
2238.86	0
2239.18	0
2239.49	-0.8
2239.8	-0.8
2240.12	-0.8
2240.43	-0.8
2240.75	-0.8
2241.06	0
2241.37	0
2241.69	0
2242	0
2242.31	0
2242.63	0.16
2242.94	0.16
2243.26	-0.44
2243.57	-0.44
2243.88	-0.32
2244.2	-0.48
2244.51	-0.48
2244.82	0.16
2245.14	0.16
2245.45	0.04
2245.76	0.12
2246.08	0.12
2246.39	0.08
2246.7	0.08
2247.02	0.12
2247.33	0.04
2247.64	0.08
2247.96	0.08
2248.27	0.08
2248.58	-0.92
2248.9	-0.88
2249.21	-0.92
2249.52	-0.92
2249.83	-0.92
2250.15	0.04
2250.46	0
2250.77	0
2251.09	0
2251.4	0.12
2251.71	0.12
2252.03	0.16
2252.34	0.16
2252.65	0.16
2252.96	0.04
2253.28	0.04
2253.59	0.2
2253.9	0.2
2254.21	0.2
2254.53	0.2
2254.84	-0.2
2255.15	-0.4
2255.47	-0.4
2255.78	-0.4
2256.09	-0.4
2256.4	0.16
2256.72	0.16
2257.03	0.16
2257.34	0.16
2257.65	0.16
2257.97	0.04
2258.28	0.04
2258.59	0.04
2258.9	0.04
2259.22	0.2
2259.53	0.16
2259.84	0.16
2260.15	0.16
2260.46	0.16
2260.78	0
2261.09	0
2261.4	0
2261.71	0.12
2262.03	0.12
2262.34	0.12
2262.65	0.12
2262.96	0.12
2263.27	0
2263.59	0.04
2263.9	0.04
2264.21	0.08
2264.52	0.08
2264.83	0.08
2265.15	0.04
2265.46	0.04
2265.77	0.24
2266.08	0.24
2266.39	0.28
2266.7	0.28
2267.02	0.28
2267.33	-0.32
2267.64	-0.32
2267.95	-0.36
2268.26	-0.2
2268.57	-0.08
2268.89	0.4
2269.2	0.4
2269.51	0.4
2269.82	0.44
2270.13	0.32
2270.44	0.2
2270.76	-0.2
2271.07	-0.2
2271.38	-1
2271.69	-1
2272	-1
2272.31	-0.8
2272.62	-1.04
2272.93	-0.44
2273.25	-0.32
2273.56	-0.32
2273.87	-0.12
2274.18	0.12
2274.49	0.2
2274.8	0.08
2275.11	0.08
2275.42	0.08
2275.74	0.08
2276.05	0
2276.36	0
2276.67	0
2276.98	0
2277.29	0
2277.6	0.04
2277.91	0.04
2278.22	-0.36
2278.53	-0.2
2278.85	-0.2
2279.16	-1.24
2279.47	-1.24
2279.78	-0.8
2280.09	-0.96
2280.4	-0.88
2280.71	0.24
2281.02	0.24
2281.33	0.2
2281.64	0.2
2281.95	0.12
2282.26	0
2282.57	0
2282.88	0
2283.19	0
2283.5	0
2283.82	0
2284.13	0.04
2284.44	0.04
2284.75	-0.56
2285.06	-0.56
2285.37	-0.56
2285.68	-0.6
2285.99	-0.6
2286.3	0
2286.61	0
2286.92	0
2287.23	0
2287.54	0
2287.85	0
2288.16	0
2288.47	0.04
2288.78	0.04
2289.09	0.04
2289.4	0.04
2289.71	0.2
2290.02	0.2
2290.33	0.2
2290.64	0.2
2290.95	0.6
2291.26	0.44
2291.57	0.4
2291.88	0
2292.19	0
2292.5	-0.4
2292.81	-0.4
2293.12	-0.4
2293.43	0
2293.74	0
2294.05	0
2294.36	0
2294.67	0
2294.98	0
2295.29	0
2295.6	0
2295.91	0
2296.21	0
2296.52	0
2296.83	0
2297.14	0
2297.45	0
2297.76	0
2298.07	0
2298.38	0
2298.69	0
2299	0
2299.31	0
2299.62	0
2299.93	0
2300.24	0
2300.55	0
2300.85	0
2301.16	0
2301.47	0
2301.78	0
2302.09	0
2302.4	0
2302.71	0
2303.02	0
2303.33	0
2303.64	0
2303.94	0
2304.25	0
2304.56	0
2304.87	0
2305.18	0
2305.49	0
2305.8	0
2306.11	0
2306.42	0
2306.72	0
2307.03	0
2307.34	0
2307.65	0
2307.96	0
2308.27	0
2308.58	0
2308.88	0
2309.19	0
2309.5	0
2309.81	0
2310.12	0
2310.43	0
2310.74	0
2311.04	0
2311.35	0
2311.66	0
2311.97	0
2312.28	0
2312.59	0
2312.89	0
2313.2	0
2313.51	0
2313.82	0
2314.13	0
2314.43	0
2314.74	0
2315.05	0
2315.36	0
2315.67	0
2315.97	0
2316.28	0
2316.59	0
2316.9	0
2317.21	0
2317.51	0
2317.82	0
2318.13	0
2318.44	0
2318.75	0
2319.05	0
2319.36	0
2319.67	0
2319.98	0
2320.28	0
2320.59	0
2320.9	0
2321.21	0
2321.51	0
2321.82	0
2322.13	0
2322.44	0
2322.74	0
2323.05	0
2323.36	0
2323.67	0
2323.97	0
2324.28	0
2324.59	0
2324.9	0
2325.2	0
2325.51	0
2325.82	0
2326.13	0
2326.43	0
2326.74	0
2327.05	0
2327.35	0
2327.66	0
2327.97	0
2328.27	0
2328.58	0
2328.89	0
2329.2	0
2329.5	0
2329.81	0
2330.12	0
2330.42	0
2330.73	0
2331.04	0
2331.34	0
2331.65	0
2331.96	0
2332.26	0
2332.57	0
2332.88	0
2333.18	0
2333.49	0
2333.8	0
2334.1	0
2334.41	0
2334.72	0
2335.02	0
2335.33	0
2335.64	0
2335.94	0
2336.25	0
2336.56	0
2336.86	0
2337.17	0
2337.48	0
2337.78	0
2338.09	0
2338.39	0
2338.7	0
2339.01	0
2339.31	0
2339.62	0
2339.93	0
2340.23	0
2340.54	0
2340.84	0
2341.15	0
2341.46	0
2341.76	0
2342.07	0
2342.37	0
2342.68	0
2342.99	0
2343.29	0
2343.6	0
2343.9	0
2344.21	0
2344.51	0
2344.82	0
2345.13	0
2345.43	0
2345.74	0
2346.04	0
2346.35	0
2346.65	0
2346.96	0
2347.27	0
2347.57	0
2347.88	0
2348.18	0
2348.49	0
2348.79	0
2349.1	0
2349.4	0
2349.71	0
2350.01	0
2350.32	0
2350.63	0
2350.93	0
2351.24	0
2351.54	0
2351.85	0
2352.15	0
2352.46	0
2352.76	0
2353.07	0
2353.37	0
2353.68	0
2353.98	0
2354.29	0
2354.59	0
2354.9	0
2355.2	0
2355.51	0
2355.81	0
2356.12	0
2356.42	0
2356.73	0
2357.03	0
2357.34	0
2357.64	0
2357.95	0
2358.25	0
2358.55	0
2358.86	0
2359.16	0
2359.47	0
2359.77	0
2360.08	0
2360.38	0
2360.69	0
2360.99	0
2361.3	0
2361.6	0
2361.9	0
2362.21	0
2362.51	0
2362.82	0
2363.12	0
2363.43	0
2363.73	0
2364.04	0
2364.34	0
2364.64	0
2364.95	0
2365.25	0
2365.56	0
2365.86	0
2366.16	0
2366.47	0
2366.77	0
2367.08	0
2367.38	0
2367.68	0
2367.99	0
2368.29	0
2368.6	0
2368.9	0
2369.2	0
2369.51	0
2369.81	0
2370.12	0
2370.42	0
2370.72	0
2371.03	0
2371.33	0
2371.63	0
2371.94	0
2372.24	0
2372.55	0
2372.85	0
2373.15	0
2373.46	0
2373.76	0
2374.06	0
2374.37	0
2374.67	0
2374.97	0
2375.28	0
2375.58	0
2375.88	0
2376.19	0
2376.49	0
2376.79	0
2377.1	0
2377.4	0
2377.7	0
2378.01	0
2378.31	0
2378.61	0
2378.92	0
2379.22	0
2379.52	0
2379.82	0
2380.13	0
2380.43	0
2380.73	0
2381.04	0
2381.34	0
2381.64	0
2381.95	0
2382.25	0
2382.55	0
2382.85	0
2383.16	0
2383.46	0
2383.76	0
2384.06	0
2384.37	0
2384.67	0
2384.97	0
2385.28	0
2385.58	0
2385.88	0
2386.18	0
2386.49	0
2386.79	0
2387.09	0
2387.39	0
2387.69	0
2388	0
2388.3	0
2388.6	0
2388.9	0
2389.21	0
2389.51	0
2389.81	0
2390.11	0
2390.42	0
2390.72	0
2391.02	0
2391.32	0
2391.62	0
2391.93	0
2392.23	0
2392.53	0
2392.83	0
2393.13	0
2393.44	0
2393.74	0
2394.04	0
2394.34	0
2394.64	0
2394.95	0
2395.25	0
2395.55	0
2395.85	0
2396.15	0
2396.45	0
2396.76	0
2397.06	0
2397.36	0
2397.66	0
2397.96	0
2398.26	0
2398.57	0
2398.87	0
2399.17	0
2399.47	0
2399.77	0
2400.07	0
2400.37	0
2400.68	0
2400.98	0
2401.28	0
2401.58	0
2401.88	0
2402.18	0
2402.48	0
2402.79	0
2403.09	0
2403.39	0
2403.69	0
2403.99	0
2404.29	0
2404.59	0
2404.89	0
2405.19	0
2405.5	0
2405.8	0
2406.1	0
2406.4	0
2406.7	0
2407	0
2407.3	0
2407.6	0
2407.9	0
2408.2	0
2408.5	0
2408.8	0
2409.11	0
2409.41	0
2409.71	0
2410.01	0
2410.31	0
2410.61	0
2410.91	0
2411.21	0
2411.51	0
2411.81	0
2412.11	0
2412.41	0
2412.71	0
2413.01	0
2413.31	0
2413.61	0
2413.91	0
2414.21	0
2414.51	0
2414.81	0
2415.12	0
2415.42	0
2415.72	0
2416.02	0
2416.32	0
2416.62	0
2416.92	0
2417.22	0
2417.52	0
2417.82	0
2418.12	0
2418.42	0
2418.72	0
2419.02	0
2419.32	0
2419.62	0
2419.92	0
2420.22	0
2420.52	0
2420.82	0
2421.12	0
2421.42	0
2421.71	0
2422.01	0
2422.31	0
2422.61	0
2422.91	0
2423.21	0
2423.51	0
2423.81	0
2424.11	0
2424.41	0
2424.71	0
2425.01	0
2425.31	0
2425.61	0
2425.91	0
2426.21	0
2426.51	0
2426.81	0
2427.11	0
2427.41	0
2427.7	0
2428	0
2428.3	0
2428.6	0
2428.9	0
2429.2	0
2429.5	0
2429.8	0
2430.1	0
2430.4	0
2430.7	0
2430.99	0
2431.29	0
2431.59	0
2431.89	0
2432.19	0
2432.49	0
2432.79	0
2433.09	0
2433.39	0
2433.68	0
2433.98	0
2434.28	0
2434.58	0
2434.88	0
2435.18	0
2435.48	0
2435.78	0
2436.07	0
2436.37	0
2436.67	0
2436.97	0
2437.27	0
2437.57	0
2437.86	0
2438.16	0
2438.46	0
2438.76	0
2439.06	0
2439.36	0
2439.66	0
2439.95	0
2440.25	0
2440.55	0
2440.85	0
2441.15	0
2441.44	0
2441.74	0
2442.04	0
2442.34	0
2442.64	0
2442.93	0
2443.23	0
2443.53	0
2443.83	0
2444.13	0
2444.42	0
2444.72	0
2445.02	0
2445.32	0
2445.62	0
2445.91	0
2446.21	0
2446.51	0
2446.81	0
2447.1	0
2447.4	0
2447.7	0
2448	0
2448.3	0
2448.59	0
2448.89	0
2449.19	0
2449.49	0
2449.78	0
2450.08	0
2450.38	0
2450.68	0
2450.97	0
2451.27	0
2451.57	0
2451.87	0
2452.16	0
2452.46	0
2452.76	0
2453.05	0
2453.35	0
2453.65	0
2453.95	0
2454.24	0
2454.54	0
2454.84	0
2455.13	0
2455.43	0
2455.73	0
2456.03	0
2456.32	0
2456.62	0
2456.92	0
2457.21	0
2457.51	0
2457.81	0
2458.1	0
2458.4	0
2458.7	0
2458.99	0
2459.29	0
2459.59	0
2459.88	0
2460.18	0
2460.48	0
2460.77	0
2461.07	0
2461.37	0
2461.66	0
2461.96	0
2462.26	0
2462.55	0
2462.85	0
2463.15	0
2463.44	0
2463.74	0
2464.04	0
2464.33	0
2464.63	0
2464.92	0
2465.22	0
2465.52	0
2465.81	0
2466.11	0
2466.41	0
2466.7	0
2467	0
2467.29	0
2467.59	0
2467.89	0
2468.18	0
2468.48	0
2468.77	0
2469.07	0
2469.37	0
2469.66	0
2469.96	0
2470.25	0
2470.55	0
2470.84	0
2471.14	0
2471.44	0
2471.73	0
2472.03	0
2472.32	0
2472.62	0
2472.91	0
2473.21	0
2473.51	0
2473.8	0
2474.1	0
2474.39	0
2474.69	0
2474.98	0
2475.28	0
2475.57	0
2475.87	0
2476.17	0
2476.46	0
2476.76	0
2477.05	0
2477.35	0
2477.64	0
2477.94	0
2478.23	0
2478.53	0
2478.82	0
2479.12	0
2479.41	0
2479.71	0
2480	0
2480.3	0
2480.59	0
2480.89	0
2481.18	0
2481.48	0
2481.77	0
2482.07	0
2482.36	0
2482.66	0
2482.95	0
2483.25	0
2483.54	0
2483.84	0
2484.13	0
2484.43	0
2484.72	0
2485.02	0
2485.31	0
2485.6	0
2485.9	0
2486.19	0
2486.49	0
2486.78	0
2487.08	0
2487.37	0
2487.67	0
2487.96	0
2488.26	0
2488.55	0
2488.84	0
2489.14	0
2489.43	0
2489.73	0
2490.02	0
2490.32	0
2490.61	0
2490.9	0
2491.2	0
2491.49	0
2491.79	0
2492.08	0
2492.37	0
2492.67	0
2492.96	0
2493.26	0
2493.55	0
2493.84	0
2494.14	0
2494.43	0
2494.73	0
2495.02	0
2495.31	0
2495.61	0
2495.9	0
2496.2	0
2496.49	0
2496.78	0
2497.08	0
2497.37	0
2497.66	0
2497.96	0
2498.25	0
2498.54	0
2498.84	0
2499.13	0
2499.43	0
2499.72	0
2500.01	0
2500.31	0
2500.6	0
2500.89	0
2501.19	0
2501.48	0
2501.77	0
2502.07	0
2502.36	0
2502.65	0
2502.95	0
2503.24	0
2503.53	0
2503.82	0
2504.12	0
2504.41	0
2504.7	0
2505	0
2505.29	0
2505.58	0
2505.88	0
2506.17	0
2506.46	0
2506.76	0
2507.05	0
2507.34	0
2507.63	0
2507.93	0
2508.22	0
2508.51	0
2508.8	0
2509.1	0
2509.39	0
2509.68	0
2509.98	0
2510.27	0
2510.56	0
2510.85	0
2511.15	0
2511.44	0
2511.73	0
2512.02	0
2512.32	0
2512.61	0
2512.9	0
2513.19	0
2513.49	0
2513.78	0
2514.07	0
2514.36	0
2514.65	0
2514.95	0
2515.24	0
2515.53	0
2515.82	0
2516.12	0
2516.41	0
2516.7	0
2516.99	0
2517.28	0
2517.58	0
2517.87	0
2518.16	0
2518.45	0
2518.74	0
2519.04	0
2519.33	0
2519.62	0
2519.91	0
2520.2	0
2520.5	0
2520.79	0
2521.08	0
2521.37	0
2521.66	0
2521.95	0
2522.25	0
2522.54	0
2522.83	0
2523.12	0
2523.41	0
2523.7	0
2523.99	0
2524.29	0
2524.58	0
2524.87	0
2525.16	0
2525.45	0
2525.74	0
2526.03	0
2526.33	0
2526.62	0
2526.91	0
2527.2	0
2527.49	0
2527.78	0
2528.07	0
2528.36	0
2528.66	0
2528.95	0
2529.24	0
2529.53	0
2529.82	0
2530.11	0
2530.4	0
2530.69	0
2530.98	0
2531.27	0
2531.57	0
2531.86	0
2532.15	0
2532.44	0
2532.73	0
2533.02	0
2533.31	0
2533.6	0
2533.89	0
2534.18	0
2534.47	0
2534.76	0
2535.05	0
2535.35	0
2535.64	0
2535.93	0
2536.22	0
2536.51	0
2536.8	0
2537.09	0
2537.38	0
2537.67	0
2537.96	0
2538.25	0
2538.54	0
2538.83	0
2539.12	0
2539.41	0
2539.7	0
2539.99	0
2540.28	0
2540.57	0
2540.86	0
2541.15	0
2541.44	0
2541.73	0
2542.02	0
2542.31	0
2542.6	0
2542.89	0
2543.18	0
2543.47	0
2543.76	0
2544.05	0
2544.34	0
2544.63	0
2544.92	0
2545.21	0
2545.5	0
2545.79	0
2546.08	0
2546.37	0
2546.66	0
2546.95	0
2547.24	0
2547.53	0
2547.82	0
2548.11	0
2548.4	0
2548.69	0
2548.98	0
2549.27	0
2549.55	0
2549.84	0
2550.13	0
2550.42	0
2550.71	0
2551	0
2551.29	0
2551.58	0
2551.87	0
2552.16	0
2552.45	0
2552.74	0
2553.03	0
2553.31	0
2553.6	0
2553.89	0
2554.18	0
2554.47	0
2554.76	0
2555.05	0
2555.34	0
2555.63	0
2555.92	0
2556.2	0
2556.49	0
2556.78	0
2557.07	0
2557.36	0
2557.65	0
2557.94	0
2558.23	0
2558.51	0
2558.8	0
2559.09	0
2559.38	0
2559.67	0
2559.96	0
2560.25	0
2560.53	0
2560.82	0
2561.11	0
2561.4	0
2561.69	0
2561.98	0
2562.27	0
2562.55	0
2562.84	0
2563.13	0
2563.42	0
2563.71	0
2564	0
2564.28	0
2564.57	0
2564.86	0
2565.15	0
2565.44	0
2565.72	0
2566.01	0
2566.3	0
2566.59	0
2566.88	0
2567.16	0
2567.45	0
2567.74	0
2568.03	0
2568.32	0
2568.6	0
2568.89	0
2569.18	0
2569.47	0
2569.75	0

