Source: Spectrum Viewer

Chart: Pulse Spectrum

Series: 
Wavelength (nm)	S (a.u.)
1179.9	0
1180.29	0
1180.68	0
1181.06	0
1181.45	0
1181.83	0
1182.22	0
1182.6	0
1182.99	0
1183.38	0
1183.76	0
1184.15	0
1184.53	0
1184.92	0
1185.3	0
1185.69	0
1186.07	0
1186.46	0
1186.85	0
1187.23	0
1187.62	0
1188	0
1188.39	0
1188.77	0
1189.16	0
1189.54	0
1189.93	0
1190.31	0
1190.7	0
1191.08	0
1191.47	0
1191.85	0
1192.24	0
1192.62	0
1193.01	0
1193.39	0
1193.78	0
1194.16	0
1194.55	0
1194.93	0
1195.32	0
1195.7	0
1196.09	0
1196.47	0
1196.86	0
1197.24	0
1197.63	0
1198.01	0
1198.4	0
1198.78	0
1199.16	0
1199.55	0
1199.93	0
1200.32	0
1200.7	0
1201.09	0
1201.47	0
1201.86	0
1202.24	0
1202.63	0
1203.01	0
1203.39	0
1203.78	0
1204.16	0
1204.55	0
1204.93	0
1205.32	0
1205.7	0
1206.08	0
1206.47	0
1206.85	0
1207.24	0
1207.62	0
1208	0
1208.39	0
1208.77	0
1209.16	0
1209.54	0
1209.92	0
1210.31	0
1210.69	0
1211.08	0
1211.46	0
1211.84	0
1212.23	0
1212.61	0
1213	0
1213.38	0
1213.76	0
1214.15	0
1214.53	0
1214.91	0
1215.3	0
1215.68	0
1216.06	0
1216.45	0
1216.83	0
1217.22	0
1217.6	0
1217.98	0
1218.37	0
1218.75	0
1219.13	0
1219.52	0
1219.9	0
1220.28	0
1220.67	0
1221.05	0
1221.43	0
1221.82	0
1222.2	0
1222.58	0
1222.97	0
1223.35	0
1223.73	0
1224.11	0
1224.5	0
1224.88	0
1225.26	0
1225.65	0
1226.03	0
1226.41	0
1226.8	0
1227.18	0
1227.56	0
1227.94	0
1228.33	0
1228.71	0
1229.09	0
1229.47	0
1229.86	0
1230.24	0
1230.62	0
1231.01	0
1231.39	0
1231.77	0
1232.15	0
1232.54	0
1232.92	0
1233.3	0
1233.68	0
1234.07	0
1234.45	0
1234.83	0
1235.21	0
1235.6	0
1235.98	0
1236.36	0
1236.74	0
1237.12	0
1237.51	0
1237.89	0
1238.27	0
1238.65	0
1239.04	0
1239.42	0
1239.8	0
1240.18	0
1240.56	0
1240.95	0
1241.33	0
1241.71	0
1242.09	0
1242.47	0
1242.86	0
1243.24	0
1243.62	0
1244	0
1244.38	0
1244.77	0
1245.15	0
1245.53	0
1245.91	0
1246.29	0
1246.67	0
1247.06	0
1247.44	0
1247.82	0
1248.2	0
1248.58	0
1248.96	0
1249.34	0
1249.73	0
1250.11	0
1250.49	0
1250.87	0
1251.25	0
1251.63	0
1252.01	0
1252.4	0
1252.78	0
1253.16	0
1253.54	0
1253.92	0
1254.3	0
1254.68	0
1255.06	0
1255.45	0
1255.83	0
1256.21	0
1256.59	0
1256.97	0
1257.35	0
1257.73	0
1258.11	0
1258.49	0
1258.87	0
1259.26	0
1259.64	0
1260.02	0
1260.4	0
1260.78	0
1261.16	0
1261.54	0
1261.92	0
1262.3	0
1262.68	0
1263.06	0
1263.44	0
1263.82	0
1264.21	0
1264.59	0
1264.97	0
1265.35	0
1265.73	0
1266.11	0
1266.49	0
1266.87	0
1267.25	0
1267.63	0
1268.01	0
1268.39	0
1268.77	0
1269.15	0
1269.53	0
1269.91	0
1270.29	0
1270.67	0
1271.05	0
1271.43	0
1271.81	0
1272.19	0
1272.57	0
1272.95	0
1273.33	0
1273.71	0
1274.09	0
1274.47	0
1274.85	0
1275.23	0
1275.61	0
1275.99	0
1276.37	0
1276.75	0
1277.13	0
1277.51	0
1277.89	0
1278.27	0
1278.65	0
1279.03	0
1279.41	0
1279.79	0
1280.17	0
1280.55	0
1280.93	0
1281.31	0
1281.69	0
1282.07	0
1282.45	0
1282.82	0
1283.2	0
1283.58	0
1283.96	0
1284.34	0
1284.72	0
1285.1	0
1285.48	0
1285.86	0
1286.24	0
1286.62	0
1287	0
1287.38	0
1287.75	0
1288.13	0
1288.51	0
1288.89	0
1289.27	0
1289.65	0
1290.03	0
1290.41	0
1290.79	0
1291.17	0
1291.54	0
1291.92	0
1292.3	0
1292.68	0
1293.06	0
1293.44	0
1293.82	0
1294.2	0
1294.57	0
1294.95	0
1295.33	0
1295.71	0
1296.09	0
1296.47	0
1296.85	0
1297.22	0
1297.6	0
1297.98	0
1298.36	0
1298.74	0
1299.12	0
1299.5	0
1299.87	0
1300.25	0
1300.63	0
1301.01	0
1301.39	0
1301.77	0
1302.14	0
1302.52	0
1302.9	0
1303.28	0
1303.66	0
1304.03	0
1304.41	0
1304.79	0
1305.17	0
1305.55	0
1305.92	0
1306.3	0
1306.68	0
1307.06	0
1307.44	0
1307.81	0
1308.19	0
1308.57	0
1308.95	0
1309.32	0
1309.7	0
1310.08	0
1310.46	0
1310.84	0
1311.21	0
1311.59	0
1311.97	0
1312.35	0
1312.72	0
1313.1	0
1313.48	0
1313.86	0
1314.23	0
1314.61	0
1314.99	0
1315.37	0
1315.74	0
1316.12	0
1316.5	0
1316.87	0
1317.25	0
1317.63	0
1318.01	0
1318.38	0
1318.76	0
1319.14	0
1319.52	0
1319.89	0
1320.27	0
1320.65	0
1321.02	0
1321.4	0
1321.78	0
1322.15	0
1322.53	0
1322.91	0
1323.29	0
1323.66	0
1324.04	0
1324.42	0
1324.79	0
1325.17	0
1325.55	0
1325.92	0
1326.3	0
1326.68	0
1327.05	0
1327.43	0
1327.81	0
1328.18	0
1328.56	0
1328.94	0
1329.31	0
1329.69	0
1330.06	0
1330.44	0
1330.82	0
1331.19	0
1331.57	0
1331.95	0
1332.32	0
1332.7	0
1333.08	0
1333.45	0
1333.83	0
1334.2	0
1334.58	0
1334.96	0
1335.33	0
1335.71	0
1336.08	0
1336.46	0
1336.84	0
1337.21	0
1337.59	0
1337.96	0
1338.34	0
1338.72	0
1339.09	0
1339.47	0
1339.84	0
1340.22	0
1340.6	0
1340.97	0
1341.35	0
1341.72	0
1342.1	0
1342.47	0
1342.85	0
1343.23	0
1343.6	0
1343.98	0
1344.35	0
1344.73	0
1345.1	0
1345.48	0
1345.85	0
1346.23	0
1346.61	0
1346.98	0
1347.36	0
1347.73	0
1348.11	0
1348.48	0
1348.86	0
1349.23	0
1349.61	0
1349.98	0
1350.36	0
1350.73	0
1351.11	0
1351.48	0
1351.86	0
1352.23	0
1352.61	0
1352.98	0
1353.36	0
1353.73	0
1354.11	0
1354.48	0
1354.86	0
1355.23	0
1355.61	0
1355.98	0
1356.36	0
1356.73	0
1357.11	0
1357.48	0
1357.86	0
1358.23	0
1358.61	0
1358.98	0
1359.35	0
1359.73	0
1360.1	0
1360.48	0
1360.85	0
1361.23	0
1361.6	0
1361.98	0
1362.35	0
1362.72	0
1363.1	0
1363.47	0
1363.85	0
1364.22	0
1364.6	0
1364.97	0
1365.34	0
1365.72	0
1366.09	0
1366.47	0
1366.84	0
1367.22	0
1367.59	0
1367.96	0
1368.34	0
1368.71	0
1369.09	0.16
1369.46	-0.84
1369.83	-0.84
1370.21	-0.8
1370.58	-0.8
1370.96	-0.96
1371.33	0.12
1371.7	0.12
1372.08	0.08
1372.45	0.12
1372.82	0.12
1373.2	0.04
1373.57	0.04
1373.95	0.04
1374.32	0
1374.69	0
1375.07	0
1375.44	0
1375.81	0.16
1376.19	0.16
1376.56	0.16
1376.93	0.24
1377.31	0.32
1377.68	0.2
1378.05	0.2
1378.43	0.2
1378.8	0.12
1379.17	0.04
1379.55	0
1379.92	0.32
1380.29	0.32
1380.67	0.32
1381.04	0.32
1381.41	0.32
1381.79	0
1382.16	0
1382.53	0.08
1382.91	-0.48
1383.28	-0.48
1383.65	-0.48
1384.03	-0.48
1384.4	-0.56
1384.77	0
1385.14	0
1385.52	0
1385.89	0
1386.26	0.04
1386.64	0.04
1387.01	0.04
1387.38	0.04
1387.75	0.04
1388.13	0
1388.5	0
1388.87	0
1389.25	0
1389.62	-0.2
1389.99	-0.4
1390.36	-0.4
1390.74	-0.4
1391.11	-0.2
1391.48	0
1391.85	0.2
1392.23	0.48
1392.6	0.48
1392.97	0.36
1393.34	0.36
1393.72	0.36
1394.09	0.08
1394.46	0.08
1394.83	0
1395.21	0
1395.58	0.04
1395.95	0.04
1396.32	0.08
1396.69	0.08
1397.07	0.08
1397.44	0.24
1397.81	0.28
1398.18	0.24
1398.55	0.24
1398.93	0.24
1399.3	0.04
1399.67	0.12
1400.04	0.16
1400.41	0.16
1400.79	0.16
1401.16	0.28
1401.53	0.16
1401.9	0.36
1402.27	0.36
1402.65	0.36
1403.02	0.24
1403.39	0.24
1403.76	-0.4
1404.13	-0.32
1404.51	-0.32
1404.88	-0.28
1405.25	-0.28
1405.62	0.12
1405.99	0.04
1406.36	0.04
1406.74	0.2
1407.11	0.2
1407.48	0.2
1407.85	-1
1408.22	-1
1408.59	-1.2
1408.96	-1.12
1409.34	-0.8
1409.71	0.4
1410.08	0.4
1410.45	0.4
1410.82	0.32
1411.19	0
1411.56	0
1411.93	0
1412.31	0
1412.68	0
1413.05	0
1413.42	0.08
1413.79	0.16
1414.16	-0.04
1414.53	-0.04
1414.9	-0.24
1415.27	-0.32
1415.65	-0.4
1416.02	-0.2
1416.39	-0.2
1416.76	0.08
1417.13	0.08
1417.5	0.08
1417.87	0.08
1418.24	0.08
1418.61	0
1418.98	0.12
1419.35	0.12
1419.73	0.12
1420.1	0.12
1420.47	0.12
1420.84	0
1421.21	0
1421.58	0
1421.95	0
1422.32	0
1422.69	0
1423.06	0.04
1423.43	0.04
1423.8	0.04
1424.17	0.04
1424.54	0.04
1424.91	0.16
1425.28	0.16
1425.65	0.2
1426.02	0.2
1426.39	0.2
1426.76	-0.56
1427.14	-0.56
1427.51	-0.6
1427.88	-0.56
1428.25	-0.48
1428.62	0.12
1428.99	0.12
1429.36	0.12
1429.73	0.08
1430.1	0.2
1430.47	0.2
1430.84	0.24
1431.21	0.28
1431.58	0.36
1431.95	0.2
1432.32	0.12
1432.69	0.08
1433.06	0.04
1433.43	-0.04
1433.8	-0.08
1434.17	0
1434.54	0
1434.91	0
1435.28	0.04
1435.64	0.12
1436.01	-0.48
1436.38	-0.48
1436.75	-0.2
1437.12	-0.24
1437.49	-0.32
1437.86	0.28
1438.23	0.32
1438.6	0.04
1438.97	0.04
1439.34	0.08
1439.71	0.08
1440.08	0.04
1440.45	0.04
1440.82	-0.56
1441.19	-0.44
1441.56	-0.44
1441.93	-0.12
1442.3	-0.12
1442.67	-1.12
1443.03	-1.28
1443.4	-1.28
1443.77	-1.6
1444.14	-1.48
1444.51	0.12
1444.88	0.12
1445.25	0.16
1445.62	0.16
1445.99	0.04
1446.36	0.04
1446.73	0.04
1447.09	0.04
1447.46	0.32
1447.83	0.32
1448.2	0.4
1448.57	0.2
1448.94	0.16
1449.31	0.08
1449.68	0.08
1450.05	0
1450.41	0.24
1450.78	-0.16
1451.15	-0.36
1451.52	-0.36
1451.89	-0.36
1452.26	-0.4
1452.63	0.04
1453	0.04
1453.36	0.04
1453.73	0.16
1454.1	0.16
1454.47	0.2
1454.84	0.2
1455.21	0.4
1455.57	-0.12
1455.94	-0.12
1456.31	-0.2
1456.68	-0.16
1457.05	-0.36
1457.42	0.04
1457.78	0.04
1458.15	0.04
1458.52	0
1458.89	0
1459.26	0
1459.63	0
1459.99	0
1460.36	0
1460.73	0
1461.1	0.52
1461.47	0.52
1461.83	0.52
1462.2	0.84
1462.57	0.84
1462.94	0.32
1463.31	0.32
1463.67	0.36
1464.04	-0.16
1464.41	-0.16
1464.78	-0.76
1465.15	-0.76
1465.51	-0.8
1465.88	-0.52
1466.25	-0.52
1466.62	0.08
1466.98	0.08
1467.35	0.08
1467.72	0
1468.09	0
1468.46	0
1468.82	0
1469.19	0
1469.56	0
1469.93	0
1470.29	0
1470.66	0.08
1471.03	0.08
1471.4	0.08
1471.76	0.2
1472.13	0.2
1472.5	0.24
1472.86	0.36
1473.23	0.36
1473.6	0.24
1473.97	0.24
1474.33	0.12
1474.7	0.04
1475.07	0.12
1475.44	0.24
1475.8	0.04
1476.17	0.16
1476.54	0.12
1476.9	0.04
1477.27	-0.08
1477.64	0.12
1478	0.08
1478.37	0.08
1478.74	0.08
1479.11	0.08
1479.47	0.08
1479.84	0
1480.21	0
1480.57	0
1480.94	0
1481.31	0
1481.67	0
1482.04	0
1482.41	0
1482.77	0.04
1483.14	0.04
1483.51	0.04
1483.87	0.04
1484.24	0.04
1484.61	0
1484.97	0
1485.34	0
1485.71	-1
1486.07	-1
1486.44	-1
1486.81	-1
1487.17	-1
1487.54	0
1487.9	0
1488.27	0.12
1488.64	-0.08
1489	-0.08
1489.37	0.08
1489.74	0.08
1490.1	0.12
1490.47	0.32
1490.83	0.32
1491.2	0.16
1491.57	0.16
1491.93	0
1492.3	0
1492.66	0
1493.03	0
1493.4	0
1493.76	0.04
1494.13	0.08
1494.49	0.08
1494.86	0.08
1495.23	0.08
1495.59	0.04
1495.96	-1.28
1496.32	-1.28
1496.69	-1.28
1497.06	-1.28
1497.42	-1.92
1497.79	-0.64
1498.15	-0.64
1498.52	-0.44
1498.88	-0.44
1499.25	0.2
1499.62	-0.2
1499.98	-0.2
1500.35	-0.4
1500.71	-0.4
1501.08	-0.4
1501.44	0
1501.81	0.04
1502.17	0.04
1502.54	0.04
1502.9	0.04
1503.27	0.04
1503.64	0
1504	0
1504.37	0
1504.73	0
1505.1	0.16
1505.46	0.16
1505.83	0.16
1506.19	0.16
1506.56	0.16
1506.92	0
1507.29	0
1507.65	0.04
1508.02	0.04
1508.38	0.04
1508.75	0.04
1509.11	0.04
1509.48	0
1509.84	0
1510.21	0
1510.57	0.08
1510.94	0.24
1511.3	0.24
1511.67	0.24
1512.03	0.24
1512.4	0.28
1512.76	0.12
1513.13	-0.88
1513.49	-1.04
1513.85	-1.04
1514.22	-1.16
1514.58	-1.12
1514.95	-0.04
1515.31	0.12
1515.68	0.28
1516.04	0.4
1516.41	0.36
1516.77	0.28
1517.14	0.28
1517.5	0.48
1517.86	0.4
1518.23	0.4
1518.59	0.4
1518.96	0.4
1519.32	0.04
1519.69	0
1520.05	0.28
1520.41	0.28
1520.78	0.44
1521.14	0.44
1521.51	0.44
1521.87	0.44
1522.24	0.44
1522.6	0.28
1522.96	0.28
1523.33	0.4
1523.69	0.12
1524.06	0.12
1524.42	0.12
1524.78	0.12
1525.15	0
1525.51	0.32
1525.88	0.32
1526.24	0.32
1526.6	0.44
1526.97	0.44
1527.33	0.12
1527.69	0.12
1528.06	0.24
1528.42	0.36
1528.79	0.36
1529.15	-0.44
1529.51	-0.4
1529.88	-0.52
1530.24	-0.76
1530.6	-0.76
1530.97	0.04
1531.33	0
1531.69	0.12
1532.06	0.12
1532.42	0.28
1532.78	0.36
1533.15	0.36
1533.51	0.24
1533.87	0.24
1534.24	0.08
1534.6	0
1534.96	0.08
1535.33	0.08
1535.69	0.24
1536.05	0.32
1536.42	0.32
1536.78	0.36
1537.14	0.36
1537.51	0.2
1537.87	0.12
1538.23	0.12
1538.6	0.08
1538.96	0.12
1539.32	0.12
1539.68	0.12
1540.05	0.12
1540.41	0.12
1540.77	0.08
1541.14	0.08
1541.5	0.08
1541.86	0.08
1542.23	0
1542.59	0
1542.95	0
1543.31	0
1543.68	0
1544.04	0
1544.4	0
1544.76	0.08
1545.13	0.12
1545.49	0.12
1545.85	0.16
1546.21	0.16
1546.58	0.2
1546.94	0.32
1547.3	0.92
1547.66	0.88
1548.03	0.88
1548.39	0.76
1548.75	0.76
1549.11	0.28
1549.48	0.28
1549.84	0.28
1550.2	0.4
1550.56	0.24
1550.93	0.2
1551.29	0.2
1551.65	0.2
1552.01	0.16
1552.37	0.32
1552.74	0.24
1553.1	0.24
1553.46	0.24
1553.82	0.2
1554.18	0.04
1554.55	0.04
1554.91	0.04
1555.27	0.2
1555.63	0.16
1555.99	0.48
1556.36	0.72
1556.72	-0.88
1557.08	-1.04
1557.44	-1
1557.8	-1.32
1558.17	-1.52
1558.53	0.08
1558.89	0.08
1559.25	0.32
1559.61	0.64
1559.97	0.72
1560.34	0.72
1560.7	0.72
1561.06	0.44
1561.42	0.16
1561.78	0.04
1562.14	-0.36
1562.5	-0.28
1562.87	-0.28
1563.23	-0.32
1563.59	-0.72
1563.95	-0.28
1564.31	-0.28
1564.67	-0.12
1565.03	-0.04
1565.4	0.36
1565.76	0.32
1566.12	0.36
1566.48	0.28
1566.84	0.2
1567.2	0.2
1567.56	0.08
1567.92	-0.04
1568.29	-0.12
1568.65	-0.12
1569.01	-0.12
1569.37	-0.4
1569.73	-0.4
1570.09	-0.4
1570.45	-0.4
1570.81	-0.36
1571.17	0.04
1571.53	0.12
1571.89	0.12
1572.26	0.16
1572.62	0.32
1572.98	0.32
1573.34	0.28
1573.7	0.28
1574.06	0.24
1574.42	0.04
1574.78	-0.12
1575.14	-0.04
1575.5	0.16
1575.86	-0.64
1576.22	-0.48
1576.58	-0.32
1576.94	-0.44
1577.3	-0.52
1577.67	0.28
1578.03	0.28
1578.39	0.28
1578.75	0.28
1579.11	0.16
1579.47	0.24
1579.83	0.08
1580.19	0.08
1580.55	0.08
1580.91	0.08
1581.27	0
1581.63	0
1581.99	0.12
1582.35	0.12
1582.71	0.32
1583.07	0.32
1583.43	0.32
1583.79	0.2
1584.15	0.28
1584.51	0.16
1584.87	0.32
1585.23	0.36
1585.59	0.36
1585.95	0.32
1586.31	0.28
1586.67	0.12
1587.03	0.08
1587.39	0.08
1587.75	0.04
1588.11	0
1588.47	0
1588.83	0.08
1589.19	0.08
1589.55	0.08
1589.91	0.08
1590.27	0.12
1590.63	0.2
1590.99	0.28
1591.35	0.28
1591.71	0.28
1592.07	0.28
1592.42	0.64
1592.78	0.64
1593.14	0.64
1593.5	0.64
1593.86	0.6
1594.22	0.08
1594.58	0
1594.94	0
1595.3	0
1595.66	0
1596.02	0.08
1596.38	0.08
1596.74	0.16
1597.1	0.2
1597.46	0.48
1597.81	0.4
1598.17	0.48
1598.53	0.4
1598.89	0.36
1599.25	0.08
1599.61	0.2
1599.97	0.12
1600.33	0.32
1600.69	0.32
1601.05	0.32
1601.4	0.32
1601.76	0.04
1602.12	-0.12
1602.48	6.66107e-18
1602.84	6.66107e-18
1603.2	0.04
1603.56	0.32
1603.92	0.28
1604.28	0.2
1604.63	0.72
1604.99	0.56
1605.35	0.64
1605.71	0.64
1606.07	0.6
1606.43	0.12
1606.79	0.24
1607.14	0.16
1607.5	0.32
1607.86	0.32
1608.22	0.64
1608.58	0.6
1608.94	0.6
1609.29	0.44
1609.65	0.24
1610.01	-0.12
1610.37	0
1610.73	0
1611.09	0.52
1611.44	0.72
1611.8	0.8
1612.16	0.6
1612.52	0.68
1612.88	0.4
1613.24	0.48
1613.59	0.4
1613.95	0.4
1614.31	0.32
1614.67	0.08
1615.03	0.28
1615.38	0.28
1615.74	0.28
1616.1	0.36
1616.46	0.36
1616.82	0.08
1617.17	0.08
1617.53	0.08
1617.89	0.08
1618.25	0.08
1618.6	0.08
1618.96	0.08
1619.32	0.08
1619.68	0
1620.04	0.04
1620.39	0.12
1620.75	0.12
1621.11	0.12
1621.47	0.12
1621.82	0.08
1622.18	0.16
1622.54	0.28
1622.9	0.28
1623.25	-0.72
1623.61	-0.52
1623.97	-0.68
1624.33	-0.72
1624.68	-0.92
1625.04	0.52
1625.4	0.32
1625.75	-0.28
1626.11	-0.32
1626.47	-0.12
1626.83	-0.56
1627.18	-0.56
1627.54	0.04
1627.9	0.04
1628.26	0.04
1628.61	0.04
1628.97	0.12
1629.33	0.12
1629.68	0.08
1630.04	0.16
1630.4	-0.44
1630.75	-0.52
1631.11	-0.52
1631.47	-0.72
1631.83	-0.8
1632.18	-0.2
1632.54	0.16
1632.9	0.24
1633.25	0.44
1633.61	0.44
1633.97	0.44
1634.32	0.08
1634.68	0.16
1635.04	0.16
1635.39	0.16
1635.75	0.24
1636.11	0.24
1636.46	0.08
1636.82	0.08
1637.18	0.08
1637.53	0.04
1637.89	0.04
1638.25	0.04
1638.6	0.04
1638.96	0.04
1639.31	0
1639.67	0
1640.03	0
1640.38	0
1640.74	0
1641.1	0
1641.45	0.12
1641.81	0.12
1642.16	0.12
1642.52	0.12
1642.88	0.16
1643.23	-0.56
1643.59	-0.56
1643.95	-0.56
1644.3	-0.56
1644.66	-0.6
1645.01	0.04
1645.37	0.04
1645.73	0.04
1646.08	0.04
1646.44	0.2
1646.79	-0.44
1647.15	-0.44
1647.51	-0.4
1647.86	-0.4
1648.22	-0.56
1648.57	-0.76
1648.93	-0.76
1649.28	-0.8
1649.64	-0.8
1650	-0.8
1650.35	0
1650.71	0
1651.06	0.24
1651.42	0.24
1651.77	0.04
1652.13	0.04
1652.48	0.04
1652.84	-0.2
1653.2	-0.2
1653.55	0
1653.91	0
1654.26	0
1654.62	0
1654.97	0
1655.33	0
1655.68	0
1656.04	0
1656.39	0.04
1656.75	0.16
1657.1	0.16
1657.46	0.16
1657.81	0.16
1658.17	0.2
1658.52	0.32
1658.88	0.32
1659.23	0.32
1659.59	0.36
1659.94	0.36
1660.3	0.28
1660.65	0.48
1661.01	0.48
1661.36	0.52
1661.72	0.44
1662.07	0.48
1662.43	0.28
1662.78	0.28
1663.14	0.2
1663.49	0.2
1663.85	0.12
1664.2	0.2
1664.56	0.24
1664.91	-1.48
1665.27	-1.48
1665.62	-1
1665.98	-1.08
1666.33	-0.96
1666.69	0.8
1667.04	0.8
1667.39	0.2
1667.75	0.2
1668.1	0.08
1668.46	0.12
1668.81	0.16
1669.17	0.28
1669.52	0.4
1669.88	0.76
1670.23	0.8
1670.58	0.8
1670.94	0.68
1671.29	0.56
1671.65	0.4
1672	0.28
1672.36	0.32
1672.71	0.52
1673.06	0.64
1673.42	0.28
1673.77	0.28
1674.13	0.2
1674.48	-6.66107e-18
1674.83	-0.04
1675.19	0.2
1675.54	0.28
1675.9	0.28
1676.25	0.28
1676.6	0.24
1676.96	0.16
1677.31	0.08
1677.67	0.36
1678.02	0.36
1678.37	0.32
1678.73	0.6
1679.08	0.6
1679.43	0.4
1679.79	0.4
1680.14	0.52
1680.5	-0.2
1680.85	-0.2
1681.2	-0.28
1681.56	-0.16
1681.91	-0.16
1682.26	0.36
1682.62	0.56
1682.97	1.04
1683.32	1.2
1683.68	1.08
1684.03	1.08
1684.38	1.12
1684.74	1.12
1685.09	1.16
1685.44	1.08
1685.8	0.96
1686.15	0.72
1686.5	0.36
1686.86	0.56
1687.21	0.72
1687.56	0.8
1687.92	1.12
1688.27	1.04
1688.62	0.52
1688.98	0.76
1689.33	0.8
1689.68	0.64
1690.03	0.8
1690.39	0.8
1690.74	0.68
1691.09	0.64
1691.45	0.32
1691.8	0.12
1692.15	0.12
1692.5	-0.08
1692.86	-0.12
1693.21	0.48
1693.56	0.48
1693.92	0.48
1694.27	-0.12
1694.62	0.2
1694.97	-0.04
1695.33	0.04
1695.68	0.48
1696.03	1.16
1696.38	1.12
1696.74	0.92
1697.09	1.16
1697.44	0.72
1697.79	0.68
1698.15	0.4
1698.5	0.44
1698.85	0.28
1699.2	-0.24
1699.56	-0.16
1699.91	-0.2
1700.26	-0.08
1700.61	0.24
1700.97	0.76
1701.32	0.76
1701.67	0.92
1702.02	0.96
1702.37	0.84
1702.73	1.12
1703.08	1
1703.43	0.92
1703.78	0.8
1704.13	0.48
1704.49	0.52
1704.84	0.68
1705.19	0.8
1705.54	0.72
1705.89	0.76
1706.25	0.44
1706.6	0.88
1706.95	1.04
1707.3	1.08
1707.65	1
1708.01	1
1708.36	0.4
1708.71	0.08
1709.06	0.4
1709.41	0.4
1709.76	0.64
1710.12	0.64
1710.47	0.72
1710.82	0.36
1711.17	0.36
1711.52	0.64
1711.87	0.68
1712.23	1
1712.58	1.12
1712.93	1.16
1713.28	0.68
1713.63	0.64
1713.98	0.24
1714.33	0.12
1714.69	0.32
1715.04	0.28
1715.39	0.28
1715.74	0.64
1716.09	0.64
1716.44	0.64
1716.79	0.76
1717.14	0.92
1717.5	0.64
1717.85	0.64
1718.2	0.56
1718.55	0.44
1718.9	0.72
1719.25	0.6
1719.6	0.96
1719.95	0.84
1720.3	0.96
1720.65	0.52
1721.01	0.72
1721.36	0.36
1721.71	0.44
1722.06	-0.08
1722.41	-0.04
1722.76	0.16
1723.11	0.24
1723.46	0.12
1723.81	0.56
1724.16	0.52
1724.51	0.16
1724.86	0.08
1725.21	0.16
1725.56	0.12
1725.92	0.2
1726.27	0.16
1726.62	0.32
1726.97	0.32
1727.32	-0.08
1727.67	-0.12
1728.02	0.24
1728.37	0.24
1728.72	0.16
1729.07	0.56
1729.42	0.52
1729.77	0.16
1730.12	0
1730.47	0.08
1730.82	0.2
1731.17	0.2
1731.52	0.32
1731.87	0.48
1732.22	0.4
1732.57	0.28
1732.92	0.28
1733.27	0.28
1733.62	0.2
1733.97	0.32
1734.32	0.6
1734.67	0.88
1735.02	0.36
1735.37	0.28
1735.72	0.44
1736.07	0.28
1736.42	0.16
1736.77	0.56
1737.12	0.56
1737.47	0.28
1737.82	0.4
1738.17	0.36
1738.52	0.4
1738.87	0.56
1739.22	0.56
1739.57	0.32
1739.92	0.28
1740.27	0.24
1740.62	0.08
1740.97	0.08
1741.32	0.28
1741.67	0.2
1742.02	0.4
1742.37	0.6
1742.72	0.76
1743.06	0.56
1743.41	0.56
1743.76	0.36
1744.11	-0.88
1744.46	-1.04
1744.81	-1.04
1745.16	-0.68
1745.51	-0.6
1745.86	0.44
1746.21	0.44
1746.56	0.48
1746.91	0.16
1747.26	0.16
1747.6	0.16
1747.95	0.2
1748.3	0.28
1748.65	0.24
1749	0.16
1749.35	0.16
1749.7	0.12
1750.05	0
1750.4	0
1750.75	0
1751.09	0.12
1751.44	0.24
1751.79	-0.36
1752.14	-0.36
1752.49	-0.36
1752.84	-0.36
1753.19	-0.28
1753.54	0.4
1753.88	0.6
1754.23	0.6
1754.58	0.6
1754.93	0.44
1755.28	0.36
1755.63	0.16
1755.98	0.28
1756.32	0.2
1756.67	0.2
1757.02	0.6
1757.37	0.68
1757.72	1.2
1758.07	1.32
1758.42	2.2
1758.76	2.76
1759.11	2.44
1759.46	2.32
1759.81	2.4
1760.16	2.36
1760.5	2.44
1760.85	2.56
1761.2	2.8
1761.55	5.08
1761.9	4.72
1762.25	4.2
1762.59	5.32
1762.94	5.36
1763.29	3.48
1763.64	3.72
1763.99	4.48
1764.33	5.72
1764.68	5.28
1765.03	5.2
1765.38	7.48
1765.73	7.6
1766.07	7.24
1766.42	10.4
1766.77	13.96
1767.12	14.6
1767.46	14.72
1767.81	15.76
1768.16	16.44
1768.51	13.64
1768.85	12.84
1769.2	14.24
1769.55	15.08
1769.9	14.12
1770.25	17.56
1770.59	19.92
1770.94	21.76
1771.29	21.96
1771.64	24.32
1771.98	23.88
1772.33	23.92
1772.68	23.48
1773.02	25.48
1773.37	26.88
1773.72	28.44
1774.07	30.56
1774.41	35.56
1774.76	34.16
1775.11	35.04
1775.46	34.52
1775.8	33.28
1776.15	32.92
1776.5	35.48
1776.84	35.76
1777.19	42.16
1777.54	45.76
1777.89	46.36
1778.23	50.68
1778.58	53.2
1778.93	51.04
1779.27	50.92
1779.62	51.48
1779.97	50.28
1780.31	49.56
1780.66	49.68
1781.01	51.2
1781.35	56.12
1781.7	59.32
1782.05	60.64
1782.39	62.76
1782.74	64.44
1783.09	63.96
1783.43	62.72
1783.78	65.92
1784.13	69.12
1784.47	67.6
1784.82	64.64
1785.17	65.32
1785.51	65.68
1785.86	67.12
1786.21	73.32
1786.55	79.4
1786.9	87.84
1787.25	91.64
1787.59	92.32
1787.94	89.84
1788.29	88.32
1788.63	84.32
1788.98	84.16
1789.32	82.24
1789.67	79.36
1790.02	77.52
1790.36	79.44
1790.71	87.2
1791.06	95.08
1791.4	105.64
1791.75	119.48
1792.09	129.2
1792.44	131.6
1792.79	134.68
1793.13	138.04
1793.48	135.08
1793.82	132.8
1794.17	124.32
1794.52	118.36
1794.86	116.2
1795.21	105.76
1795.55	87.6
1795.9	84
1796.24	100.4
1796.59	119.76
1796.94	137.56
1797.28	153.92
1797.63	168.72
1797.97	154.4
1798.32	132.36
1798.66	135.96
1799.01	136.92
1799.36	127.96
1799.7	134.04
1800.05	138.2
1800.39	125.36
1800.74	139.48
1801.08	161.68
1801.43	174.44
1801.77	173.16
1802.12	180
1802.46	177.6
1802.81	162.8
1803.15	151.44
1803.5	150.4
1803.85	136.4
1804.19	119.08
1804.54	118.64
1804.88	116.4
1805.23	117.76
1805.57	140.08
1805.92	168.16
1806.26	173
1806.61	170.92
1806.95	181.76
1807.3	192.16
1807.64	191.68
1807.99	197.16
1808.33	199.68
1808.68	188.8
1809.02	182.72
1809.37	191.04
1809.71	199.24
1810.06	206.12
1810.4	205.88
1810.75	192.88
1811.09	185.4
1811.43	200.88
1811.78	227.64
1812.12	259.12
1812.47	273.36
1812.81	271.64
1813.16	251.6
1813.5	230.92
1813.85	218.8
1814.19	207.24
1814.54	191.44
1814.88	178.92
1815.23	160.68
1815.57	131.24
1815.91	110.96
1816.26	112.44
1816.6	138.48
1816.95	161.28
1817.29	181.44
1817.64	215.96
1817.98	247.24
1818.32	247.36
1818.67	251.36
1819.01	267.4
1819.36	257.36
1819.7	231.32
1820.05	219.24
1820.39	208.08
1820.73	196.72
1821.08	202.6
1821.42	194.92
1821.77	175.2
1822.11	162
1822.45	152.44
1822.8	138.64
1823.14	128.96
1823.49	149.12
1823.83	187.68
1824.17	213.6
1824.52	227.92
1824.86	247.48
1825.2	239.36
1825.55	202.12
1825.89	165.92
1826.24	166.08
1826.58	179.12
1826.92	183.48
1827.27	197.84
1827.61	214.72
1827.95	199.84
1828.3	177.72
1828.64	156.92
1828.98	127.96
1829.33	126.12
1829.67	152.08
1830.02	159.44
1830.36	182.64
1830.7	217.88
1831.05	222.8
1831.39	208.24
1831.73	201.48
1832.08	185.36
1832.42	170.32
1832.76	158.04
1833.1	142.04
1833.45	134.52
1833.79	127.4
1834.13	124.08
1834.48	126.32
1834.82	127.24
1835.16	123.04
1835.51	128.44
1835.85	115.56
1836.19	100.28
1836.54	90.96
1836.88	82.52
1837.22	65.44
1837.56	68.72
1837.91	77.96
1838.25	91.2
1838.59	110.4
1838.94	119.36
1839.28	112.92
1839.62	112.48
1839.96	104.04
1840.31	80.72
1840.65	69.68
1840.99	86.36
1841.34	104.44
1841.68	116.12
1842.02	135.08
1842.36	144.08
1842.71	123.2
1843.05	100.92
1843.39	103.4
1843.73	110.56
1844.08	130.84
1844.42	155.16
1844.76	161.96
1845.1	145.88
1845.45	130.72
1845.79	118.6
1846.13	108.44
1846.47	97.8
1846.81	92.2
1847.16	94.36
1847.5	96.76
1847.84	100.56
1848.18	108.32
1848.53	114.04
1848.87	109.52
1849.21	98.4
1849.55	84.2
1849.89	75.88
1850.24	69.88
1850.58	64.88
1850.92	62.32
1851.26	61.28
1851.6	60.76
1851.95	58.48
1852.29	56.96
1852.63	52.12
1852.97	46.8
1853.31	39.12
1853.66	36.28
1854	37.16
1854.34	41.4
1854.68	48.88
1855.02	50.92
1855.36	49.28
1855.71	44.96
1856.05	38.68
1856.39	30.36
1856.73	24.52
1857.07	24.08
1857.41	27.68
1857.76	24.76
1858.1	22.2
1858.44	23.92
1858.78	20.88
1859.12	13.84
1859.46	12.24
1859.8	10.48
1860.15	10.04
1860.49	23.92
1860.83	29.04
1861.17	29.48
1861.51	32.2
1861.85	31.24
1862.19	18.12
1862.53	16.4
1862.88	17.44
1863.22	15.32
1863.56	14.44
1863.9	14.12
1864.24	10.64
1864.58	10.84
1864.92	10.24
1865.26	9.68
1865.6	7.92
1865.94	6.4
1866.29	4.36
1866.63	4.28
1866.97	4.64
1867.31	6.44
1867.65	7.28
1867.99	8.36
1868.33	8.72
1868.67	9.88
1869.01	12.44
1869.35	19.96
1869.69	26.56
1870.03	29.08
1870.37	31.84
1870.72	28.88
1871.06	21.52
1871.4	15.16
1871.74	13.36
1872.08	12.96
1872.42	20.44
1872.76	26.12
1873.1	25.92
1873.44	25.96
1873.78	22.64
1874.12	16.68
1874.46	16.08
1874.8	22.76
1875.14	27.16
1875.48	31.04
1875.82	32.48
1876.16	33.48
1876.5	29.92
1876.84	25.64
1877.18	22.84
1877.52	19.28
1877.86	12.28
1878.2	10.32
1878.54	11.24
1878.88	11.48
1879.22	13.76
1879.56	17.24
1879.9	17.92
1880.24	19
1880.58	20.68
1880.92	21.52
1881.26	21.8
1881.6	22.32
1881.94	23.12
1882.28	26
1882.62	31.16
1882.96	34.32
1883.3	35.56
1883.64	34.88
1883.98	31.96
1884.32	27.72
1884.66	25.88
1885	25.92
1885.34	26.6
1885.68	29.76
1886.02	30.48
1886.36	29.48
1886.7	30.04
1887.04	33
1887.38	32.52
1887.72	36
1888.06	38.68
1888.39	39.8
1888.73	42.56
1889.07	49.96
1889.41	48.52
1889.75	52.08
1890.09	57.48
1890.43	54.08
1890.77	44.56
1891.11	43.12
1891.45	38.64
1891.79	33.16
1892.13	36.16
1892.47	40.36
1892.8	42.68
1893.14	46.32
1893.48	49.8
1893.82	49.2
1894.16	47.8
1894.5	47.72
1894.84	46.48
1895.18	43.88
1895.52	46.64
1895.86	48.28
1896.19	49.12
1896.53	50.64
1896.87	54.2
1897.21	51.56
1897.55	54.28
1897.89	58.68
1898.23	61.28
1898.57	59.48
1898.9	61.24
1899.24	60.12
1899.58	58.56
1899.92	59.76
1900.26	60.68
1900.6	61.24
1900.94	63.68
1901.27	65.16
1901.61	63
1901.95	65.24
1902.29	66.08
1902.63	65.64
1902.97	64.96
1903.3	66.68
1903.64	67.28
1903.98	66.96
1904.32	68.28
1904.66	66.52
1905	66
1905.33	66.64
1905.67	68.16
1906.01	67.92
1906.35	69.84
1906.69	69.8
1907.02	69.96
1907.36	69.56
1907.7	71.36
1908.04	71.12
1908.38	72.16
1908.71	71.92
1909.05	73.48
1909.39	71.36
1909.73	72.08
1910.07	71.04
1910.4	70.96
1910.74	69.56
1911.08	70.76
1911.42	71.16
1911.76	72.08
1912.09	70.92
1912.43	73.2
1912.77	73.76
1913.11	73.32
1913.44	72.96
1913.78	74.24
1914.12	73.24
1914.46	73.76
1914.79	75.72
1915.13	75.2
1915.47	73.76
1915.81	73.24
1916.14	71.8
1916.48	69.72
1916.82	71.48
1917.16	74.48
1917.49	74.08
1917.83	74.44
1918.17	75.88
1918.5	75.12
1918.84	73.28
1919.18	75.68
1919.52	75.44
1919.85	73
1920.19	73.4
1920.53	75.72
1920.87	74.52
1921.2	73.92
1921.54	76.12
1921.88	75.64
1922.21	73.8
1922.55	72.96
1922.89	73.36
1923.22	72.04
1923.56	73.16
1923.9	71.52
1924.23	73.08
1924.57	72.68
1924.91	75.44
1925.25	72.92
1925.58	75.8
1925.92	75.04
1926.26	75.84
1926.59	71.84
1926.93	72.8
1927.27	70.48
1927.6	69.36
1927.94	70.08
1928.28	73.08
1928.61	73.32
1928.95	74.68
1929.29	74.56
1929.62	73
1929.96	71.16
1930.29	72.64
1930.63	72
1930.97	71.24
1931.3	72.52
1931.64	74.16
1931.98	72.8
1932.31	71.68
1932.65	72.88
1932.99	71.28
1933.32	70.84
1933.66	70.72
1933.99	70.08
1934.33	71.12
1934.67	71.88
1935	69.8
1935.34	70.04
1935.67	71.76
1936.01	70.84
1936.35	70.32
1936.68	73.8
1937.02	74.32
1937.35	75.36
1937.69	75.88
1938.03	75.8
1938.36	72.76
1938.7	72
1939.03	70.32
1939.37	70.64
1939.7	71.84
1940.04	73.4
1940.38	72.68
1940.71	73.4
1941.05	73.68
1941.38	73.6
1941.72	73.16
1942.05	75.08
1942.39	75.28
1942.73	74.96
1943.06	75.56
1943.4	75.6
1943.73	75.04
1944.07	75.08
1944.4	73.76
1944.74	72.64
1945.07	73
1945.41	72.64
1945.74	71.8
1946.08	73.12
1946.42	74.24
1946.75	73.4
1947.09	73.24
1947.42	74.76
1947.76	74.12
1948.09	73.04
1948.43	74.44
1948.76	74.96
1949.1	72.28
1949.43	73.16
1949.77	74.68
1950.1	73.72
1950.44	74.12
1950.77	78.36
1951.11	78.32
1951.44	77.64
1951.78	77.92
1952.11	77.88
1952.45	75.48
1952.78	75.2
1953.12	75.32
1953.45	76.32
1953.79	75.88
1954.12	77.52
1954.46	77.08
1954.79	77.32
1955.12	76.32
1955.46	76.48
1955.79	74.64
1956.13	73.32
1956.46	73.44
1956.8	72.56
1957.13	72.32
1957.47	73.52
1957.8	75.6
1958.14	74.2
1958.47	74.4
1958.8	74.2
1959.14	73.88
1959.47	73.64
1959.81	73.68
1960.14	75.48
1960.48	74.16
1960.81	72.96
1961.14	73.08
1961.48	73.08
1961.81	72.04
1962.15	73.68
1962.48	73.48
1962.82	71.16
1963.15	69.8
1963.48	69.8
1963.82	69.84
1964.15	69.56
1964.49	69.92
1964.82	70.44
1965.15	70
1965.49	68.12
1965.82	66.88
1966.16	66.72
1966.49	65.36
1966.82	63.56
1967.16	63.68
1967.49	63.8
1967.83	62.84
1968.16	63.44
1968.49	63.2
1968.83	61.48
1969.16	60.72
1969.49	61.52
1969.83	61.44
1970.16	59.64
1970.49	60.04
1970.83	59.16
1971.16	57.6
1971.5	54.16
1971.83	54.88
1972.16	54.76
1972.5	55.32
1972.83	54.04
1973.16	55.4
1973.5	54.52
1973.83	50.72
1974.16	49.36
1974.5	49.04
1974.83	46.84
1975.16	44.84
1975.5	47.2
1975.83	45.56
1976.16	45.44
1976.49	45.04
1976.83	44
1977.16	42.04
1977.49	41.8
1977.83	41
1978.16	40.56
1978.49	41.44
1978.83	39.76
1979.16	40.24
1979.49	38.76
1979.83	37.88
1980.16	35.72
1980.49	35.88
1980.82	34.44
1981.16	32.08
1981.49	32.4
1981.82	32.2
1982.15	31.8
1982.49	31.28
1982.82	31.68
1983.15	29.96
1983.49	30.16
1983.82	28.36
1984.15	27.16
1984.48	26.4
1984.82	25.64
1985.15	24.08
1985.48	23.52
1985.81	21.6
1986.15	21.32
1986.48	21.6
1986.81	20.6
1987.14	19.84
1987.48	21.64
1987.81	21.88
1988.14	20.84
1988.47	20.68
1988.81	21.04
1989.14	19.32
1989.47	18.24
1989.8	18.32
1990.13	17.76
1990.47	17.8
1990.8	17.28
1991.13	15.36
1991.46	14.68
1991.79	12.76
1992.13	10.92
1992.46	10.2
1992.79	10.28
1993.12	9.92
1993.45	12.68
1993.79	14.04
1994.12	14.64
1994.45	14.88
1994.78	14.88
1995.11	13.08
1995.45	12.04
1995.78	11.16
1996.11	10.76
1996.44	8.52
1996.77	8.36
1997.1	7.4
1997.44	6.68
1997.77	6.44
1998.1	6.76
1998.43	6.24
1998.76	6.36
1999.09	7.4
1999.43	6.2
1999.76	6.92
2000.09	6.96
2000.42	7.76
2000.75	5
2001.08	5.88
2001.41	5.72
2001.75	5.76
2002.08	5.32
2002.41	6.64
2002.74	6.32
2003.07	6.16
2003.4	5.96
2003.73	5.32
2004.06	4.92
2004.4	5.56
2004.73	5.28
2005.06	4.32
2005.39	3.96
2005.72	4.68
2006.05	3.92
2006.38	4.64
2006.71	6.36
2007.04	6.36
2007.37	6.56
2007.71	6.64
2008.04	6.36
2008.37	5.56
2008.7	5.8
2009.03	6.4
2009.36	6.64
2009.69	6.6
2010.02	6.64
2010.35	7.4
2010.68	6.44
2011.01	6.08
2011.34	6.4
2011.67	5.4
2012.01	4.44
2012.34	5
2012.67	4.68
2013	3.52
2013.33	3.96
2013.66	4.76
2013.99	4.2
2014.32	4.4
2014.65	4.8
2014.98	5.16
2015.31	4.88
2015.64	4.6
2015.97	4.84
2016.3	4.44
2016.63	5.12
2016.96	5.08
2017.29	5.56
2017.62	6.04
2017.95	6.44
2018.28	6.48
2018.61	6.64
2018.94	7.64
2019.27	7.24
2019.6	7.32
2019.93	6.76
2020.26	7.44
2020.59	6.16
2020.92	6.32
2021.25	6.4
2021.58	6.28
2021.91	5.92
2022.24	5.84
2022.57	5.24
2022.9	4.52
2023.23	5.16
2023.56	4.44
2023.89	5.04
2024.22	5.84
2024.55	6.2
2024.88	6
2025.21	6.08
2025.54	6.16
2025.87	6.44
2026.2	7.16
2026.53	6.92
2026.86	7.56
2027.19	7.44
2027.52	7.04
2027.85	5.96
2028.18	6.2
2028.51	5.36
2028.84	5.04
2029.16	4.72
2029.49	5
2029.82	4.8
2030.15	4.24
2030.48	4.24
2030.81	4.2
2031.14	4.4
2031.47	4.12
2031.8	5.2
2032.13	5.32
2032.46	5.4
2032.79	5.76
2033.12	5.68
2033.44	5.72
2033.77	5.08
2034.1	5.6
2034.43	5.52
2034.76	5.08
2035.09	4.32
2035.42	5.92
2035.75	5.48
2036.08	5.64
2036.41	6.32
2036.73	6.8
2037.06	5.6
2037.39	6.08
2037.72	6.12
2038.05	5.84
2038.38	5.6
2038.71	5.96
2039.04	5.6
2039.36	4.56
2039.69	4.84
2040.02	4.92
2040.35	4.76
2040.68	4.4
2041.01	4.44
2041.34	3.52
2041.66	3.36
2041.99	3.08
2042.32	3.36
2042.65	3.32
2042.98	3.88
2043.31	3.72
2043.63	3.4
2043.96	2.96
2044.29	3.92
2044.62	4.28
2044.95	4.2
2045.28	4.56
2045.6	4.48
2045.93	3.12
2046.26	2.44
2046.59	2.48
2046.92	1.76
2047.24	1.76
2047.57	2.8
2047.9	3.16
2048.23	3.8
2048.56	4.04
2048.88	4.24
2049.21	3.72
2049.54	3.48
2049.87	2.88
2050.2	3
2050.52	2.48
2050.85	2.8
2051.18	2.92
2051.51	2.52
2051.83	2.4
2052.16	2.52
2052.49	2.6
2052.82	2.56
2053.15	2.68
2053.47	2.64
2053.8	2.84
2054.13	2
2054.46	1.6
2054.78	1.88
2055.11	2.32
2055.44	1.8
2055.77	1.84
2056.09	1.92
2056.42	1.8
2056.75	1.88
2057.08	2.48
2057.4	3.32
2057.73	3.44
2058.06	3.48
2058.38	2.6
2058.71	2.84
2059.04	2.24
2059.37	2.16
2059.69	2.08
2060.02	2.44
2060.35	2.2
2060.67	1.92
2061	1.6
2061.33	1.36
2061.66	1.12
2061.98	0.8
2062.31	1.16
2062.64	1.32
2062.96	1.72
2063.29	2.16
2063.62	2
2063.94	1.8
2064.27	2.08
2064.6	0.84
2064.92	0.6
2065.25	0.88
2065.58	0.96
2065.91	0.48
2066.23	1.16
2066.56	1
2066.89	0.64
2067.21	0.56
2067.54	0.6
2067.87	0.48
2068.19	0.44
2068.52	0.56
2068.84	0.32
2069.17	0.8
2069.5	0.92
2069.82	0.72
2070.15	0.72
2070.48	0.72
2070.8	0.16
2071.13	0.28
2071.46	0.44
2071.78	0.36
2072.11	0.44
2072.43	0.44
2072.76	0.32
2073.09	0.48
2073.41	0.76
2073.74	0.68
2074.07	0.68
2074.39	0.56
2074.72	0.48
2075.04	0.2
2075.37	0.24
2075.7	0.4
2076.02	0.56
2076.35	0.88
2076.67	1.2
2077	1.44
2077.33	1.28
2077.65	1.44
2077.98	0.96
2078.3	0.72
2078.63	0.56
2078.95	0.6
2079.28	0.96
2079.61	0.52
2079.93	0.56
2080.26	0.44
2080.58	0.56
2080.91	0.2
2081.23	0.84
2081.56	0.68
2081.89	0.76
2082.21	0.8
2082.54	0.52
2082.86	0.32
2083.19	0.56
2083.51	0.6
2083.84	0.48
2084.16	0.68
2084.49	0.8
2084.81	0.64
2085.14	0.68
2085.46	0.72
2085.79	0.48
2086.12	0.52
2086.44	0.44
2086.77	0.72
2087.09	0.64
2087.42	0.64
2087.74	0.52
2088.07	0.52
2088.39	0.48
2088.72	0.6
2089.04	0.6
2089.37	0.72
2089.69	0.72
2090.02	0.44
2090.34	0.32
2090.67	0.44
2090.99	-1.92
2091.32	-1.76
2091.64	-1.88
2091.97	-1.88
2092.29	-1.72
2092.62	0.68
2092.94	0.64
2093.26	1.04
2093.59	1.04
2093.91	-0.36
2094.24	-0.36
2094.56	-0.36
2094.89	-0.64
2095.21	-0.6
2095.54	0.52
2095.86	0.32
2096.19	0.2
2096.51	0.08
2096.84	0.08
2097.16	0.32
2097.48	0.32
2097.81	0.64
2098.13	0.76
2098.46	0.28
2098.78	0.04
2099.11	0.24
2099.43	0.12
2099.75	0.04
2100.08	0.76
2100.4	1.44
2100.73	1.92
2101.05	1.76
2101.38	1.96
2101.7	1.72
2102.02	1.2
2102.35	0.68
2102.67	0.72
2103	0.8
2103.32	0.76
2103.64	0.72
2103.97	0.64
2104.29	0.68
2104.62	0.36
2104.94	0.32
2105.26	-0.4
2105.59	-0.48
2105.91	-0.08
2106.23	0.08
2106.56	0.12
2106.88	0.76
2107.21	0.88
2107.53	0.64
2107.85	0.48
2108.18	0.48
2108.5	0.44
2108.82	0.4
2109.15	0.4
2109.47	0.44
2109.79	0.6
2110.12	0.76
2110.44	0.68
2110.76	0.4
2111.09	0.36
2111.41	0.2
2111.73	0.08
2112.06	0.24
2112.38	0.36
2112.7	-0.24
2113.03	-0.28
2113.35	-0.32
2113.67	-0.48
2114	-0.32
2114.32	0.28
2114.64	0.32
2114.97	0.4
2115.29	0.48
2115.61	0.32
2115.94	0.48
2116.26	0.44
2116.58	0.4
2116.91	-0.68
2117.23	-0.8
2117.55	-0.96
2117.87	-0.8
2118.2	-0.76
2118.52	0.24
2118.84	0.32
2119.17	0.32
2119.49	0.16
2119.81	0.36
2120.13	0.52
2120.46	0.48
2120.78	-0.32
2121.1	-0.2
2121.42	-0.48
2121.75	-0.56
2122.07	-0.6
2122.39	0.2
2122.72	0.28
2123.04	0.28
2123.36	0.2
2123.68	0.2
2124.01	0.28
2124.33	0.08
2124.65	0.2
2124.97	0.44
2125.29	0.56
2125.62	0.48
2125.94	0.52
2126.26	0.44
2126.58	0.2
2126.91	-0.8
2127.23	-0.8
2127.55	-0.76
2127.87	-0.56
2128.2	-0.56
2128.52	0.32
2128.84	0.32
2129.16	0.24
2129.48	0
2129.81	0
2130.13	0.24
2130.45	0.56
2130.77	0.56
2131.09	0.72
2131.42	1
2131.74	0.76
2132.06	0.48
2132.38	0.76
2132.7	0.68
2133.02	0.4
2133.35	0.52
2133.67	0.52
2133.99	0.44
2134.31	-0.24
2134.63	-0.24
2134.96	-0.28
2135.28	-0.32
2135.6	-0.52
2135.92	0.2
2136.24	0.2
2136.56	0.12
2136.88	0.12
2137.21	0.6
2137.53	0.48
2137.85	0.48
2138.17	-0.12
2138.49	-0.12
2138.81	-0.4
2139.13	-0.4
2139.46	-0.4
2139.78	0.2
2140.1	0.2
2140.42	0
2140.74	0
2141.06	0
2141.38	0
2141.7	0
2142.03	0
2142.35	0
2142.67	0
2142.99	0
2143.31	0
2143.63	0
2143.95	0.6
2144.27	0.6
2144.59	0.6
2144.91	0.4
2145.24	0.4
2145.56	-0.2
2145.88	-0.2
2146.2	-0.2
2146.52	0
2146.84	0.28
2147.16	0.28
2147.48	0.6
2147.8	1
2148.12	1.04
2148.44	0.8
2148.76	0.8
2149.08	0.48
2149.41	0.08
2149.73	0.08
2150.05	0.28
2150.37	0.28
2150.69	0.28
2151.01	0.36
2151.33	0.32
2151.65	0.08
2151.97	0.28
2152.29	0.44
2152.61	0.08
2152.93	0.08
2153.25	0.08
2153.57	0.04
2153.89	4.82944e-17
2154.21	-0.12
2154.53	6.66107e-18
2154.85	6.66107e-18
2155.17	-0.08
2155.49	-0.4
2155.81	0
2156.13	0.12
2156.45	0.12
2156.77	0.2
2157.09	0.56
2157.41	0.56
2157.73	0.32
2158.05	0.32
2158.37	0.16
2158.69	0.24
2159.01	0.24
2159.33	0.24
2159.65	0.56
2159.97	0.56
2160.29	0.32
2160.61	0.32
2160.93	0.32
2161.25	0.04
2161.57	0.04
2161.89	0.04
2162.21	0.04
2162.53	0.08
2162.85	-0.56
2163.17	-0.56
2163.49	-0.56
2163.81	-0.56
2164.13	-0.4
2164.45	-0.4
2164.77	-0.4
2165.08	-0.12
2165.4	-0.12
2165.72	-0.32
2166.04	0.28
2166.36	0.28
2166.68	0
2167	0.12
2167.32	0.28
2167.64	0.32
2167.96	0.32
2168.28	0.68
2168.6	0.56
2168.92	0.4
2169.24	0.4
2169.55	0.52
2169.87	0.16
2170.19	0.28
2170.51	0.44
2170.83	0.4
2171.15	0.36
2171.47	0.36
2171.79	0.24
2172.11	0.08
2172.43	0.08
2172.74	0
2173.06	0
2173.38	0
2173.7	0
2174.02	0.04
2174.34	0.04
2174.66	0.04
2174.98	0.04
2175.29	0.04
2175.61	0.12
2175.93	0.12
2176.25	0.12
2176.57	0.12
2176.89	0.12
2177.21	0
2177.52	0
2177.84	0.04
2178.16	0.08
2178.48	0.08
2178.8	0.08
2179.12	0.08
2179.43	0.04
2179.75	-1
2180.07	-1
2180.39	-1
2180.71	-1
2181.03	-1
2181.34	0
2181.66	0
2181.98	0
2182.3	0
2182.62	0
2182.93	-0.4
2183.25	-0.4
2183.57	-0.4
2183.89	0.08
2184.21	0.12
2184.52	0.52
2184.84	0.52
2185.16	0.6
2185.48	0.12
2185.8	0.16
2186.11	0.16
2186.43	0.16
2186.75	0.08
2187.07	-0.32
2187.39	-1.04
2187.7	-1.04
2188.02	-1.64
2188.34	-1.64
2188.66	-1.24
2188.97	-0.6
2189.29	-0.6
2189.61	0
2189.93	0.08
2190.24	0.08
2190.56	0.16
2190.88	0.16
2191.2	0.16
2191.51	0.08
2191.83	0.08
2192.15	0.12
2192.47	0.12
2192.78	0.12
2193.1	0.2
2193.42	0.4
2193.74	0.32
2194.05	0.32
2194.37	0.32
2194.69	0.24
2195	-0.36
2195.32	-0.4
2195.64	-0.4
2195.96	-0.4
2196.27	-0.24
2196.59	-0.44
2196.91	-0.44
2197.22	-0.44
2197.54	-0.44
2197.86	-0.6
2198.18	0.08
2198.49	0.44
2198.81	0.44
2199.13	0.44
2199.44	0.44
2199.76	0.6
2200.08	0.24
2200.39	0.24
2200.71	0.24
2201.03	0.24
2201.34	0.08
2201.66	0.08
2201.98	0.08
2202.29	0.28
2202.61	0.28
2202.93	0.2
2203.24	0.2
2203.56	0.36
2203.88	0.16
2204.19	0.16
2204.51	0.16
2204.83	0.16
2205.14	0
2205.46	0.12
2205.78	0.12
2206.09	0.12
2206.41	-0.08
2206.72	-0.28
2207.04	-0.4
2207.36	-0.8
2207.67	-0.8
2207.99	-0.6
2208.31	-0.36
2208.62	-0.36
2208.94	0.04
2209.25	0.08
2209.57	0.12
2209.89	0.24
2210.2	0.28
2210.52	0.4
2210.83	0.36
2211.15	0.32
2211.47	0.16
2211.78	0.28
2212.1	-0.24
2212.41	-0.24
2212.73	-0.24
2213.05	-0.08
2213.36	-0.2
2213.68	0.2
2213.99	0.2
2214.31	0.48
2214.62	0.32
2214.94	0.28
2215.26	0.32
2215.57	0.32
2215.89	0.2
2216.2	0.2
2216.52	0.2
2216.83	0.16
2217.15	0.16
2217.46	0
2217.78	0
2218.1	-0.2
2218.41	-0.2
2218.73	-0.16
2219.04	-0.16
2219.36	0.2
2219.67	0.56
2219.99	0.56
2220.3	0.52
2220.62	0.52
2220.93	0.16
2221.25	0
2221.56	0
2221.88	0
2222.19	0
2222.51	0.16
2222.82	-1.24
2223.14	-0.92
2223.45	-0.92
2223.77	-0.92
2224.08	-0.92
2224.4	0.68
2224.71	0.44
2225.03	0.44
2225.34	0.6
2225.66	-0.96
2225.97	-1
2226.29	-0.88
2226.6	-0.88
2226.92	-1.04
2227.23	0.4
2227.55	0.24
2227.86	0.04
2228.18	0.04
2228.49	0.04
2228.81	0.08
2229.12	0.08
2229.44	0.12
2229.75	0.28
2230.07	0.28
2230.38	0.2
2230.69	0.2
2231.01	0.28
2231.32	0.12
2231.64	0.16
2231.95	0.16
2232.27	0.16
2232.58	0.04
2232.9	0.04
2233.21	0
2233.52	0
2233.84	0
2234.15	0
2234.47	0.24
2234.78	0.36
2235.1	0.48
2235.41	0.48
2235.72	0.48
2236.04	0.24
2236.35	0.12
2236.67	-0.6
2236.98	-0.6
2237.29	-0.6
2237.61	-0.6
2237.92	-0.36
2238.24	0.24
2238.55	0.24
2238.86	0.24
2239.18	0.28
2239.49	-0.76
2239.8	-0.76
2240.12	-0.68
2240.43	-0.68
2240.75	-0.72
2241.06	0.16
2241.37	0.16
2241.69	0.08
2242	0.08
2242.31	0.08
2242.63	0
2242.94	0
2243.26	-0.6
2243.57	-0.6
2243.88	-0.6
2244.2	-0.48
2244.51	-0.4
2244.82	0.2
2245.14	0.2
2245.45	0.2
2245.76	0.2
2246.08	0.12
2246.39	0.12
2246.7	0.24
2247.02	0.24
2247.33	0.12
2247.64	0.28
2247.96	0.28
2248.27	0.16
2248.58	-0.8
2248.9	-0.8
2249.21	-0.96
2249.52	-0.96
2249.83	-0.96
2250.15	0.08
2250.46	0.08
2250.77	0.08
2251.09	0.08
2251.4	0.08
2251.71	0
2252.03	0
2252.34	0.08
2252.65	0.08
2252.96	0.08
2253.28	0.16
2253.59	0.2
2253.9	0.12
2254.21	0.12
2254.53	0.12
2254.84	-0.36
2255.15	-0.4
2255.47	-0.32
2255.78	-0.12
2256.09	-0.12
2256.4	0.28
2256.72	0.36
2257.03	0.28
2257.34	0.08
2257.65	0.12
2257.97	0.32
2258.28	0.24
2258.59	0.24
2258.9	0.24
2259.22	0.36
2259.53	0.16
2259.84	0.16
2260.15	0.16
2260.46	0.16
2260.78	0
2261.09	0
2261.4	0
2261.71	0.08
2262.03	0.08
2262.34	0.08
2262.65	0.08
2262.96	0.48
2263.27	0.4
2263.59	0.4
2263.9	0.4
2264.21	0.4
2264.52	0
2264.83	0
2265.15	0
2265.46	0
2265.77	0
2266.08	0
2266.39	0.04
2266.7	0.16
2267.02	0.16
2267.33	-0.24
2267.64	-0.16
2267.95	-0.2
2268.26	-0.32
2268.57	-0.2
2268.89	0.2
2269.2	0.12
2269.51	0.16
2269.82	0.16
2270.13	0.04
2270.44	0.04
2270.76	-0.36
2271.07	-0.4
2271.38	-0.68
2271.69	-0.68
2272	-0.68
2272.31	-0.48
2272.62	-1.28
2272.93	-0.96
2273.25	-0.96
2273.56	-0.96
2273.87	-0.76
2274.18	0.04
2274.49	0
2274.8	0
2275.11	0.08
2275.42	0.08
2275.74	0.08
2276.05	0.08
2276.36	0.08
2276.67	0
2276.98	0
2277.29	0
2277.6	0
2277.91	0
2278.22	-0.4
2278.53	-0.4
2278.85	-0.08
2279.16	-0.84
2279.47	-0.68
2279.78	-0.28
2280.09	-0.16
2280.4	-0.48
2280.71	0.48
2281.02	0.32
2281.33	0.32
2281.64	0.2
2281.95	0.2
2282.26	0
2282.57	0
2282.88	0
2283.19	0
2283.5	0
2283.82	0.08
2284.13	0.08
2284.44	0.08
2284.75	-0.52
2285.06	-0.52
2285.37	-0.6
2285.68	-0.6
2285.99	-0.6
2286.3	0
2286.61	0
2286.92	0
2287.23	0
2287.54	0
2287.85	0
2288.16	0
2288.47	0
2288.78	0
2289.09	0.28
2289.4	0.28
2289.71	0.28
2290.02	0.28
2290.33	0.28
2290.64	0
2290.95	-0.2
2291.26	-0.2
2291.57	-0.12
2291.88	-0.52
2292.19	-0.52
2292.5	-0.32
2292.81	-0.32
2293.12	-0.4
2293.43	0
2293.74	0
2294.05	0
2294.36	0
2294.67	0
2294.98	0
2295.29	0
2295.6	0
2295.91	0
2296.21	0
2296.52	0
2296.83	0
2297.14	0
2297.45	0
2297.76	0
2298.07	0
2298.38	0
2298.69	0
2299	0
2299.31	0
2299.62	0
2299.93	0
2300.24	0
2300.55	0
2300.85	0
2301.16	0
2301.47	0
2301.78	0
2302.09	0
2302.4	0
2302.71	0
2303.02	0
2303.33	0
2303.64	0
2303.94	0
2304.25	0
2304.56	0
2304.87	0
2305.18	0
2305.49	0
2305.8	0
2306.11	0
2306.42	0
2306.72	0
2307.03	0
2307.34	0
2307.65	0
2307.96	0
2308.27	0
2308.58	0
2308.88	0
2309.19	0
2309.5	0
2309.81	0
2310.12	0
2310.43	0
2310.74	0
2311.04	0
2311.35	0
2311.66	0
2311.97	0
2312.28	0
2312.59	0
2312.89	0
2313.2	0
2313.51	0
2313.82	0
2314.13	0
2314.43	0
2314.74	0
2315.05	0
2315.36	0
2315.67	0
2315.97	0
2316.28	0
2316.59	0
2316.9	0
2317.21	0
2317.51	0
2317.82	0
2318.13	0
2318.44	0
2318.75	0
2319.05	0
2319.36	0
2319.67	0
2319.98	0
2320.28	0
2320.59	0
2320.9	0
2321.21	0
2321.51	0
2321.82	0
2322.13	0
2322.44	0
2322.74	0
2323.05	0
2323.36	0
2323.67	0
2323.97	0
2324.28	0
2324.59	0
2324.9	0
2325.2	0
2325.51	0
2325.82	0
2326.13	0
2326.43	0
2326.74	0
2327.05	0
2327.35	0
2327.66	0
2327.97	0
2328.27	0
2328.58	0
2328.89	0
2329.2	0
2329.5	0
2329.81	0
2330.12	0
2330.42	0
2330.73	0
2331.04	0
2331.34	0
2331.65	0
2331.96	0
2332.26	0
2332.57	0
2332.88	0
2333.18	0
2333.49	0
2333.8	0
2334.1	0
2334.41	0
2334.72	0
2335.02	0
2335.33	0
2335.64	0
2335.94	0
2336.25	0
2336.56	0
2336.86	0
2337.17	0
2337.48	0
2337.78	0
2338.09	0
2338.39	0
2338.7	0
2339.01	0
2339.31	0
2339.62	0
2339.93	0
2340.23	0
2340.54	0
2340.84	0
2341.15	0
2341.46	0
2341.76	0
2342.07	0
2342.37	0
2342.68	0
2342.99	0
2343.29	0
2343.6	0
2343.9	0
2344.21	0
2344.51	0
2344.82	0
2345.13	0
2345.43	0
2345.74	0
2346.04	0
2346.35	0
2346.65	0
2346.96	0
2347.27	0
2347.57	0
2347.88	0
2348.18	0
2348.49	0
2348.79	0
2349.1	0
2349.4	0
2349.71	0
2350.01	0
2350.32	0
2350.63	0
2350.93	0
2351.24	0
2351.54	0
2351.85	0
2352.15	0
2352.46	0
2352.76	0
2353.07	0
2353.37	0
2353.68	0
2353.98	0
2354.29	0
2354.59	0
2354.9	0
2355.2	0
2355.51	0
2355.81	0
2356.12	0
2356.42	0
2356.73	0
2357.03	0
2357.34	0
2357.64	0
2357.95	0
2358.25	0
2358.55	0
2358.86	0
2359.16	0
2359.47	0
2359.77	0
2360.08	0
2360.38	0
2360.69	0
2360.99	0
2361.3	0
2361.6	0
2361.9	0
2362.21	0
2362.51	0
2362.82	0
2363.12	0
2363.43	0
2363.73	0
2364.04	0
2364.34	0
2364.64	0
2364.95	0
2365.25	0
2365.56	0
2365.86	0
2366.16	0
2366.47	0
2366.77	0
2367.08	0
2367.38	0
2367.68	0
2367.99	0
2368.29	0
2368.6	0
2368.9	0
2369.2	0
2369.51	0
2369.81	0
2370.12	0
2370.42	0
2370.72	0
2371.03	0
2371.33	0
2371.63	0
2371.94	0
2372.24	0
2372.55	0
2372.85	0
2373.15	0
2373.46	0
2373.76	0
2374.06	0
2374.37	0
2374.67	0
2374.97	0
2375.28	0
2375.58	0
2375.88	0
2376.19	0
2376.49	0
2376.79	0
2377.1	0
2377.4	0
2377.7	0
2378.01	0
2378.31	0
2378.61	0
2378.92	0
2379.22	0
2379.52	0
2379.82	0
2380.13	0
2380.43	0
2380.73	0
2381.04	0
2381.34	0
2381.64	0
2381.95	0
2382.25	0
2382.55	0
2382.85	0
2383.16	0
2383.46	0
2383.76	0
2384.06	0
2384.37	0
2384.67	0
2384.97	0
2385.28	0
2385.58	0
2385.88	0
2386.18	0
2386.49	0
2386.79	0
2387.09	0
2387.39	0
2387.69	0
2388	0
2388.3	0
2388.6	0
2388.9	0
2389.21	0
2389.51	0
2389.81	0
2390.11	0
2390.42	0
2390.72	0
2391.02	0
2391.32	0
2391.62	0
2391.93	0
2392.23	0
2392.53	0
2392.83	0
2393.13	0
2393.44	0
2393.74	0
2394.04	0
2394.34	0
2394.64	0
2394.95	0
2395.25	0
2395.55	0
2395.85	0
2396.15	0
2396.45	0
2396.76	0
2397.06	0
2397.36	0
2397.66	0
2397.96	0
2398.26	0
2398.57	0
2398.87	0
2399.17	0
2399.47	0
2399.77	0
2400.07	0
2400.37	0
2400.68	0
2400.98	0
2401.28	0
2401.58	0
2401.88	0
2402.18	0
2402.48	0
2402.79	0
2403.09	0
2403.39	0
2403.69	0
2403.99	0
2404.29	0
2404.59	0
2404.89	0
2405.19	0
2405.5	0
2405.8	0
2406.1	0
2406.4	0
2406.7	0
2407	0
2407.3	0
2407.6	0
2407.9	0
2408.2	0
2408.5	0
2408.8	0
2409.11	0
2409.41	0
2409.71	0
2410.01	0
2410.31	0
2410.61	0
2410.91	0
2411.21	0
2411.51	0
2411.81	0
2412.11	0
2412.41	0
2412.71	0
2413.01	0
2413.31	0
2413.61	0
2413.91	0
2414.21	0
2414.51	0
2414.81	0
2415.12	0
2415.42	0
2415.72	0
2416.02	0
2416.32	0
2416.62	0
2416.92	0
2417.22	0
2417.52	0
2417.82	0
2418.12	0
2418.42	0
2418.72	0
2419.02	0
2419.32	0
2419.62	0
2419.92	0
2420.22	0
2420.52	0
2420.82	0
2421.12	0
2421.42	0
2421.71	0
2422.01	0
2422.31	0
2422.61	0
2422.91	0
2423.21	0
2423.51	0
2423.81	0
2424.11	0
2424.41	0
2424.71	0
2425.01	0
2425.31	0
2425.61	0
2425.91	0
2426.21	0
2426.51	0
2426.81	0
2427.11	0
2427.41	0
2427.7	0
2428	0
2428.3	0
2428.6	0
2428.9	0
2429.2	0
2429.5	0
2429.8	0
2430.1	0
2430.4	0
2430.7	0
2430.99	0
2431.29	0
2431.59	0
2431.89	0
2432.19	0
2432.49	0
2432.79	0
2433.09	0
2433.39	0
2433.68	0
2433.98	0
2434.28	0
2434.58	0
2434.88	0
2435.18	0
2435.48	0
2435.78	0
2436.07	0
2436.37	0
2436.67	0
2436.97	0
2437.27	0
2437.57	0
2437.86	0
2438.16	0
2438.46	0
2438.76	0
2439.06	0
2439.36	0
2439.66	0
2439.95	0
2440.25	0
2440.55	0
2440.85	0
2441.15	0
2441.44	0
2441.74	0
2442.04	0
2442.34	0
2442.64	0
2442.93	0
2443.23	0
2443.53	0
2443.83	0
2444.13	0
2444.42	0
2444.72	0
2445.02	0
2445.32	0
2445.62	0
2445.91	0
2446.21	0
2446.51	0
2446.81	0
2447.1	0
2447.4	0
2447.7	0
2448	0
2448.3	0
2448.59	0
2448.89	0
2449.19	0
2449.49	0
2449.78	0
2450.08	0
2450.38	0
2450.68	0
2450.97	0
2451.27	0
2451.57	0
2451.87	0
2452.16	0
2452.46	0
2452.76	0
2453.05	0
2453.35	0
2453.65	0
2453.95	0
2454.24	0
2454.54	0
2454.84	0
2455.13	0
2455.43	0
2455.73	0
2456.03	0
2456.32	0
2456.62	0
2456.92	0
2457.21	0
2457.51	0
2457.81	0
2458.1	0
2458.4	0
2458.7	0
2458.99	0
2459.29	0
2459.59	0
2459.88	0
2460.18	0
2460.48	0
2460.77	0
2461.07	0
2461.37	0
2461.66	0
2461.96	0
2462.26	0
2462.55	0
2462.85	0
2463.15	0
2463.44	0
2463.74	0
2464.04	0
2464.33	0
2464.63	0
2464.92	0
2465.22	0
2465.52	0
2465.81	0
2466.11	0
2466.41	0
2466.7	0
2467	0
2467.29	0
2467.59	0
2467.89	0
2468.18	0
2468.48	0
2468.77	0
2469.07	0
2469.37	0
2469.66	0
2469.96	0
2470.25	0
2470.55	0
2470.84	0
2471.14	0
2471.44	0
2471.73	0
2472.03	0
2472.32	0
2472.62	0
2472.91	0
2473.21	0
2473.51	0
2473.8	0
2474.1	0
2474.39	0
2474.69	0
2474.98	0
2475.28	0
2475.57	0
2475.87	0
2476.17	0
2476.46	0
2476.76	0
2477.05	0
2477.35	0
2477.64	0
2477.94	0
2478.23	0
2478.53	0
2478.82	0
2479.12	0
2479.41	0
2479.71	0
2480	0
2480.3	0
2480.59	0
2480.89	0
2481.18	0
2481.48	0
2481.77	0
2482.07	0
2482.36	0
2482.66	0
2482.95	0
2483.25	0
2483.54	0
2483.84	0
2484.13	0
2484.43	0
2484.72	0
2485.02	0
2485.31	0
2485.6	0
2485.9	0
2486.19	0
2486.49	0
2486.78	0
2487.08	0
2487.37	0
2487.67	0
2487.96	0
2488.26	0
2488.55	0
2488.84	0
2489.14	0
2489.43	0
2489.73	0
2490.02	0
2490.32	0
2490.61	0
2490.9	0
2491.2	0
2491.49	0
2491.79	0
2492.08	0
2492.37	0
2492.67	0
2492.96	0
2493.26	0
2493.55	0
2493.84	0
2494.14	0
2494.43	0
2494.73	0
2495.02	0
2495.31	0
2495.61	0
2495.9	0
2496.2	0
2496.49	0
2496.78	0
2497.08	0
2497.37	0
2497.66	0
2497.96	0
2498.25	0
2498.54	0
2498.84	0
2499.13	0
2499.43	0
2499.72	0
2500.01	0
2500.31	0
2500.6	0
2500.89	0
2501.19	0
2501.48	0
2501.77	0
2502.07	0
2502.36	0
2502.65	0
2502.95	0
2503.24	0
2503.53	0
2503.82	0
2504.12	0
2504.41	0
2504.7	0
2505	0
2505.29	0
2505.58	0
2505.88	0
2506.17	0
2506.46	0
2506.76	0
2507.05	0
2507.34	0
2507.63	0
2507.93	0
2508.22	0
2508.51	0
2508.8	0
2509.1	0
2509.39	0
2509.68	0
2509.98	0
2510.27	0
2510.56	0
2510.85	0
2511.15	0
2511.44	0
2511.73	0
2512.02	0
2512.32	0
2512.61	0
2512.9	0
2513.19	0
2513.49	0
2513.78	0
2514.07	0
2514.36	0
2514.65	0
2514.95	0
2515.24	0
2515.53	0
2515.82	0
2516.12	0
2516.41	0
2516.7	0
2516.99	0
2517.28	0
2517.58	0
2517.87	0
2518.16	0
2518.45	0
2518.74	0
2519.04	0
2519.33	0
2519.62	0
2519.91	0
2520.2	0
2520.5	0
2520.79	0
2521.08	0
2521.37	0
2521.66	0
2521.95	0
2522.25	0
2522.54	0
2522.83	0
2523.12	0
2523.41	0
2523.7	0
2523.99	0
2524.29	0
2524.58	0
2524.87	0
2525.16	0
2525.45	0
2525.74	0
2526.03	0
2526.33	0
2526.62	0
2526.91	0
2527.2	0
2527.49	0
2527.78	0
2528.07	0
2528.36	0
2528.66	0
2528.95	0
2529.24	0
2529.53	0
2529.82	0
2530.11	0
2530.4	0
2530.69	0
2530.98	0
2531.27	0
2531.57	0
2531.86	0
2532.15	0
2532.44	0
2532.73	0
2533.02	0
2533.31	0
2533.6	0
2533.89	0
2534.18	0
2534.47	0
2534.76	0
2535.05	0
2535.35	0
2535.64	0
2535.93	0
2536.22	0
2536.51	0
2536.8	0
2537.09	0
2537.38	0
2537.67	0
2537.96	0
2538.25	0
2538.54	0
2538.83	0
2539.12	0
2539.41	0
2539.7	0
2539.99	0
2540.28	0
2540.57	0
2540.86	0
2541.15	0
2541.44	0
2541.73	0
2542.02	0
2542.31	0
2542.6	0
2542.89	0
2543.18	0
2543.47	0
2543.76	0
2544.05	0
2544.34	0
2544.63	0
2544.92	0
2545.21	0
2545.5	0
2545.79	0
2546.08	0
2546.37	0
2546.66	0
2546.95	0
2547.24	0
2547.53	0
2547.82	0
2548.11	0
2548.4	0
2548.69	0
2548.98	0
2549.27	0
2549.55	0
2549.84	0
2550.13	0
2550.42	0
2550.71	0
2551	0
2551.29	0
2551.58	0
2551.87	0
2552.16	0
2552.45	0
2552.74	0
2553.03	0
2553.31	0
2553.6	0
2553.89	0
2554.18	0
2554.47	0
2554.76	0
2555.05	0
2555.34	0
2555.63	0
2555.92	0
2556.2	0
2556.49	0
2556.78	0
2557.07	0
2557.36	0
2557.65	0
2557.94	0
2558.23	0
2558.51	0
2558.8	0
2559.09	0
2559.38	0
2559.67	0
2559.96	0
2560.25	0
2560.53	0
2560.82	0
2561.11	0
2561.4	0
2561.69	0
2561.98	0
2562.27	0
2562.55	0
2562.84	0
2563.13	0
2563.42	0
2563.71	0
2564	0
2564.28	0
2564.57	0
2564.86	0
2565.15	0
2565.44	0
2565.72	0
2566.01	0
2566.3	0
2566.59	0
2566.88	0
2567.16	0
2567.45	0
2567.74	0
2568.03	0
2568.32	0
2568.6	0
2568.89	0
2569.18	0
2569.47	0
2569.75	0

