Source: Spectrum Viewer

Chart: Pulse Spectrum

Series: 
Wavelength (nm)	S (a.u.)
1179.9	0
1180.29	0
1180.68	0
1181.06	0
1181.45	0
1181.83	0
1182.22	0
1182.6	0
1182.99	0
1183.38	0
1183.76	0
1184.15	0
1184.53	0
1184.92	0
1185.3	0
1185.69	0
1186.07	0
1186.46	0
1186.85	0
1187.23	0
1187.62	0
1188	0
1188.39	0
1188.77	0
1189.16	0
1189.54	0
1189.93	0
1190.31	0
1190.7	0
1191.08	0
1191.47	0
1191.85	0
1192.24	0
1192.62	0
1193.01	0
1193.39	0
1193.78	0
1194.16	0
1194.55	0
1194.93	0
1195.32	0
1195.7	0
1196.09	0
1196.47	0
1196.86	0
1197.24	0
1197.63	0
1198.01	0
1198.4	0
1198.78	0
1199.16	0
1199.55	0
1199.93	0
1200.32	0
1200.7	0
1201.09	0
1201.47	0
1201.86	0
1202.24	0
1202.63	0
1203.01	0
1203.39	0
1203.78	0
1204.16	0
1204.55	0
1204.93	0
1205.32	0
1205.7	0
1206.08	0
1206.47	0
1206.85	0
1207.24	0
1207.62	0
1208	0
1208.39	0
1208.77	0
1209.16	0
1209.54	0
1209.92	0
1210.31	0
1210.69	0
1211.08	0
1211.46	0
1211.84	0
1212.23	0
1212.61	0
1213	0
1213.38	0
1213.76	0
1214.15	0
1214.53	0
1214.91	0
1215.3	0
1215.68	0
1216.06	0
1216.45	0
1216.83	0
1217.22	0
1217.6	0
1217.98	0
1218.37	0
1218.75	0
1219.13	0
1219.52	0
1219.9	0
1220.28	0
1220.67	0
1221.05	0
1221.43	0
1221.82	0
1222.2	0
1222.58	0
1222.97	0
1223.35	0
1223.73	0
1224.11	0
1224.5	0
1224.88	0
1225.26	0
1225.65	0
1226.03	0
1226.41	0
1226.8	0
1227.18	0
1227.56	0
1227.94	0
1228.33	0
1228.71	0
1229.09	0
1229.47	0
1229.86	0
1230.24	0
1230.62	0
1231.01	0
1231.39	0
1231.77	0
1232.15	0
1232.54	0
1232.92	0
1233.3	0
1233.68	0
1234.07	0
1234.45	0
1234.83	0
1235.21	0
1235.6	0
1235.98	0
1236.36	0
1236.74	0
1237.12	0
1237.51	0
1237.89	0
1238.27	0
1238.65	0
1239.04	0
1239.42	0
1239.8	0
1240.18	0
1240.56	0
1240.95	0
1241.33	0
1241.71	0
1242.09	0
1242.47	0
1242.86	0
1243.24	0
1243.62	0
1244	0
1244.38	0
1244.77	0
1245.15	0
1245.53	0
1245.91	0
1246.29	0
1246.67	0
1247.06	0
1247.44	0
1247.82	0
1248.2	0
1248.58	0
1248.96	0
1249.34	0
1249.73	0
1250.11	0
1250.49	0
1250.87	0
1251.25	0
1251.63	0
1252.01	0
1252.4	0
1252.78	0
1253.16	0
1253.54	0
1253.92	0
1254.3	0
1254.68	0
1255.06	0
1255.45	0
1255.83	0
1256.21	0
1256.59	0
1256.97	0
1257.35	0
1257.73	0
1258.11	0
1258.49	0
1258.87	0
1259.26	0
1259.64	0
1260.02	0
1260.4	0
1260.78	0
1261.16	0
1261.54	0
1261.92	0
1262.3	0
1262.68	0
1263.06	0
1263.44	0
1263.82	0
1264.21	0
1264.59	0
1264.97	0
1265.35	0
1265.73	0
1266.11	0
1266.49	0
1266.87	0
1267.25	0
1267.63	0
1268.01	0
1268.39	0
1268.77	0
1269.15	0
1269.53	0
1269.91	0
1270.29	0
1270.67	0
1271.05	0
1271.43	0
1271.81	0
1272.19	0
1272.57	0
1272.95	0
1273.33	0
1273.71	0
1274.09	0
1274.47	0
1274.85	0
1275.23	0
1275.61	0
1275.99	0
1276.37	0
1276.75	0
1277.13	0
1277.51	0
1277.89	0
1278.27	0
1278.65	0
1279.03	0
1279.41	0
1279.79	0
1280.17	0
1280.55	0
1280.93	0
1281.31	0
1281.69	0
1282.07	0
1282.45	0
1282.82	0
1283.2	0
1283.58	0
1283.96	0
1284.34	0
1284.72	0
1285.1	0
1285.48	0
1285.86	0
1286.24	0
1286.62	0
1287	0
1287.38	0
1287.75	0
1288.13	0
1288.51	0
1288.89	0
1289.27	0
1289.65	0
1290.03	0
1290.41	0
1290.79	0
1291.17	0
1291.54	0
1291.92	0
1292.3	0
1292.68	0
1293.06	0
1293.44	0
1293.82	0
1294.2	0
1294.57	0
1294.95	0
1295.33	0
1295.71	0
1296.09	0
1296.47	0
1296.85	0
1297.22	0
1297.6	0
1297.98	0
1298.36	0
1298.74	0
1299.12	0
1299.5	0
1299.87	0
1300.25	0
1300.63	0
1301.01	0
1301.39	0
1301.77	0
1302.14	0
1302.52	0
1302.9	0
1303.28	0
1303.66	0
1304.03	0
1304.41	0
1304.79	0
1305.17	0
1305.55	0
1305.92	0
1306.3	0
1306.68	0
1307.06	0
1307.44	0
1307.81	0
1308.19	0
1308.57	0
1308.95	0
1309.32	0
1309.7	0
1310.08	0
1310.46	0
1310.84	0
1311.21	0
1311.59	0
1311.97	0
1312.35	0
1312.72	0
1313.1	0
1313.48	0
1313.86	0
1314.23	0
1314.61	0
1314.99	0
1315.37	0
1315.74	0
1316.12	0
1316.5	0
1316.87	0
1317.25	0
1317.63	0
1318.01	0
1318.38	0
1318.76	0
1319.14	0
1319.52	0
1319.89	0
1320.27	0
1320.65	0
1321.02	0
1321.4	0
1321.78	0
1322.15	0
1322.53	0
1322.91	0
1323.29	0
1323.66	0
1324.04	0
1324.42	0
1324.79	0
1325.17	0
1325.55	0
1325.92	0
1326.3	0
1326.68	0
1327.05	0
1327.43	0
1327.81	0
1328.18	0
1328.56	0
1328.94	0
1329.31	0
1329.69	0
1330.06	0
1330.44	0
1330.82	0
1331.19	0
1331.57	0
1331.95	0
1332.32	0
1332.7	0
1333.08	0
1333.45	0
1333.83	0
1334.2	0
1334.58	0
1334.96	0
1335.33	0
1335.71	0
1336.08	0
1336.46	0
1336.84	0
1337.21	0
1337.59	0
1337.96	0
1338.34	0
1338.72	0
1339.09	0
1339.47	0
1339.84	0
1340.22	0
1340.6	0
1340.97	0
1341.35	0
1341.72	0
1342.1	0
1342.47	0
1342.85	0
1343.23	0
1343.6	0
1343.98	0
1344.35	0
1344.73	0
1345.1	0
1345.48	0
1345.85	0
1346.23	0
1346.61	0
1346.98	0
1347.36	0
1347.73	0
1348.11	0
1348.48	0
1348.86	0
1349.23	0
1349.61	0
1349.98	0
1350.36	0
1350.73	0
1351.11	0
1351.48	0
1351.86	0
1352.23	0
1352.61	0
1352.98	0
1353.36	0
1353.73	0
1354.11	0
1354.48	0
1354.86	0
1355.23	0
1355.61	0
1355.98	0
1356.36	0
1356.73	0
1357.11	0
1357.48	0
1357.86	0
1358.23	0
1358.61	0
1358.98	0
1359.35	0
1359.73	0
1360.1	0
1360.48	0
1360.85	0
1361.23	0
1361.6	0
1361.98	0
1362.35	0
1362.72	0
1363.1	0
1363.47	0
1363.85	0
1364.22	0
1364.6	0
1364.97	0
1365.34	0
1365.72	0
1366.09	0
1366.47	0
1366.84	0
1367.22	0
1367.59	0
1367.96	0
1368.34	0
1368.71	0
1369.09	0.16
1369.46	-0.84
1369.83	-0.84
1370.21	-0.84
1370.58	-0.84
1370.96	-1
1371.33	0
1371.7	0
1372.08	0.04
1372.45	0.04
1372.82	0.08
1373.2	0.08
1373.57	0.36
1373.95	0.32
1374.32	0.32
1374.69	0.32
1375.07	0.32
1375.44	0.04
1375.81	0.08
1376.19	0.08
1376.56	0.04
1376.93	0.24
1377.31	0.48
1377.68	0.44
1378.05	0.44
1378.43	0.6
1378.8	0.44
1379.17	0.2
1379.55	0.2
1379.92	0.24
1380.29	0.08
1380.67	0.04
1381.04	0.04
1381.41	0.12
1381.79	0.08
1382.16	0.08
1382.53	0.08
1382.91	-0.84
1383.28	-0.92
1383.65	-0.92
1384.03	-0.92
1384.4	-0.84
1384.77	0.08
1385.14	0.08
1385.52	0.08
1385.89	0.08
1386.26	0
1386.64	0
1387.01	0
1387.38	0
1387.75	0
1388.13	0
1388.5	0
1388.87	0
1389.25	0
1389.62	-0.2
1389.99	-0.4
1390.36	-0.4
1390.74	-0.4
1391.11	-0.4
1391.48	-0.2
1391.85	0
1392.23	0
1392.6	0
1392.97	0.12
1393.34	0.12
1393.72	0.2
1394.09	0.2
1394.46	0.2
1394.83	0.08
1395.21	0.32
1395.58	0.28
1395.95	0.28
1396.32	0.44
1396.69	0.44
1397.07	0.2
1397.44	0.24
1397.81	0.32
1398.18	0.16
1398.55	0.28
1398.93	0.28
1399.3	0.2
1399.67	0.16
1400.04	0.16
1400.41	0.04
1400.79	0.04
1401.16	0.04
1401.53	0.08
1401.9	0.08
1402.27	0.08
1402.65	0.08
1403.02	0.08
1403.39	0.04
1403.76	-0.36
1404.13	-0.36
1404.51	-0.36
1404.88	-0.32
1405.25	-0.36
1405.62	0.12
1405.99	0.12
1406.36	0.48
1406.74	0.52
1407.11	0.52
1407.48	0.44
1407.85	-0.6
1408.22	-0.96
1408.59	-0.88
1408.96	-0.88
1409.34	-0.84
1409.71	0.2
1410.08	0.2
1410.45	0.04
1410.82	0.04
1411.19	0
1411.56	0
1411.93	0
1412.31	0.04
1412.68	0.04
1413.05	0.04
1413.42	0.28
1413.79	0.48
1414.16	0.24
1414.53	0.24
1414.9	0.04
1415.27	-0.16
1415.65	-0.36
1416.02	1.44334e-17
1416.39	1.44334e-17
1416.76	0.2
1417.13	0.16
1417.5	0.2
1417.87	0.04
1418.24	0.04
1418.61	0.04
1418.98	0.04
1419.35	0.16
1419.73	0.16
1420.1	0.16
1420.47	0.16
1420.84	0.16
1421.21	0.16
1421.58	0.4
1421.95	0.4
1422.32	0.4
1422.69	0.4
1423.06	0.24
1423.43	0
1423.8	0
1424.17	0
1424.54	0
1424.91	0
1425.28	0.2
1425.65	0.2
1426.02	0.2
1426.39	0.2
1426.76	-0.32
1427.14	-0.52
1427.51	-0.52
1427.88	-0.52
1428.25	-0.44
1428.62	0.64
1428.99	0.8
1429.36	0.8
1429.73	0.8
1430.1	0.92
1430.47	0.36
1430.84	0.48
1431.21	0.48
1431.58	0.48
1431.95	0.28
1432.32	0.08
1432.69	-0.2
1433.06	-0.2
1433.43	-0.2
1433.8	-0.16
1434.17	0.04
1434.54	0.08
1434.91	0.08
1435.28	0.2
1435.64	0.24
1436.01	-0.32
1436.38	-0.36
1436.75	-0.36
1437.12	-0.48
1437.49	-0.56
1437.86	0.12
1438.23	0.12
1438.6	0.12
1438.97	0.24
1439.34	0.28
1439.71	0.16
1440.08	0.16
1440.45	0.16
1440.82	-0.56
1441.19	-0.52
1441.56	-0.52
1441.93	-0.32
1442.3	-0.32
1442.67	-1.32
1443.03	-1.4
1443.4	-1.4
1443.77	-1.44
1444.14	-1.36
1444.51	0.24
1444.88	0.44
1445.25	0.44
1445.62	0.28
1445.99	0.2
1446.36	0.2
1446.73	0.04
1447.09	0.12
1447.46	0.36
1447.83	0.48
1448.2	0.48
1448.57	0.52
1448.94	0.44
1449.31	0.2
1449.68	0.16
1450.05	0.16
1450.41	0.08
1450.78	-0.32
1451.15	-0.32
1451.52	-0.4
1451.89	-0.16
1452.26	0.12
1452.63	0.52
1453	0.52
1453.36	0.52
1453.73	0.28
1454.1	0
1454.47	0
1454.84	0.4
1455.21	0.4
1455.57	0
1455.94	0.12
1456.31	0.16
1456.68	-0.24
1457.05	-1.44334e-17
1457.42	0.4
1457.78	0.28
1458.15	0.24
1458.52	0.6
1458.89	0.36
1459.26	0.4
1459.63	0.4
1459.99	0.4
1460.36	0.04
1460.73	0.08
1461.1	0.04
1461.47	0.04
1461.83	0.32
1462.2	0.32
1462.57	0.28
1462.94	0.28
1463.31	0.28
1463.67	0
1464.04	-0.2
1464.41	-0.2
1464.78	-0.8
1465.15	-0.8
1465.51	-0.8
1465.88	-0.6
1466.25	-0.48
1466.62	0.12
1466.98	0.12
1467.35	0.16
1467.72	0.28
1468.09	0.16
1468.46	0.16
1468.82	0.16
1469.19	0.2
1469.56	0.08
1469.93	0.36
1470.29	0.36
1470.66	0.44
1471.03	0.36
1471.4	0.36
1471.76	0.08
1472.13	0.2
1472.5	0.12
1472.86	0.12
1473.23	0.12
1473.6	0.12
1473.97	0.04
1474.33	0.08
1474.7	0.2
1475.07	0.2
1475.44	0.28
1475.8	0.08
1476.17	0.04
1476.54	-0.04
1476.9	-0.04
1477.27	-0.12
1477.64	0.04
1478	0.04
1478.37	0
1478.74	0
1479.11	0
1479.47	0
1479.84	0
1480.21	0
1480.57	0
1480.94	0.04
1481.31	0.24
1481.67	0.24
1482.04	0.4
1482.41	0.44
1482.77	0.4
1483.14	0.28
1483.51	0.28
1483.87	0.32
1484.24	0.28
1484.61	0.28
1484.97	0.2
1485.34	0.2
1485.71	-0.8
1486.07	-0.8
1486.44	-0.8
1486.81	-0.72
1487.17	-0.64
1487.54	0.4
1487.9	0.4
1488.27	0.4
1488.64	0.16
1489	0.08
1489.37	-0.16
1489.74	-0.16
1490.1	-0.16
1490.47	0.08
1490.83	0.08
1491.2	0.2
1491.57	0.36
1491.93	0.36
1492.3	0.28
1492.66	0.28
1493.03	0.2
1493.4	0.16
1493.76	0.32
1494.13	0.32
1494.49	0.32
1494.86	0.4
1495.23	0.28
1495.59	0.24
1495.96	-1.16
1496.32	-1.16
1496.69	-1.28
1497.06	-1.28
1497.42	-2.2
1497.79	-0.8
1498.15	-0.68
1498.52	-0.48
1498.88	-0.44
1499.25	0.36
1499.62	-0.04
1499.98	0.12
1500.35	-0.08
1500.71	-0.12
1501.08	-0.12
1501.44	0.28
1501.81	0
1502.17	0.12
1502.54	0.12
1502.9	0.12
1503.27	0.12
1503.64	0.12
1504	0
1504.37	0.12
1504.73	0.16
1505.1	0.2
1505.46	0.2
1505.83	0.2
1506.19	0.08
1506.56	0.04
1506.92	0
1507.29	0.2
1507.65	0.2
1508.02	0.2
1508.38	0.32
1508.75	0.32
1509.11	0.12
1509.48	0.12
1509.84	0.28
1510.21	0.28
1510.57	0.32
1510.94	0.68
1511.3	0.92
1511.67	0.76
1512.03	0.68
1512.4	0.76
1512.76	0.4
1513.13	-0.84
1513.49	-1.04
1513.85	-1.08
1514.22	-1.2
1514.58	-0.76
1514.95	0.48
1515.31	0.68
1515.68	0.68
1516.04	1
1516.41	0.64
1516.77	0.4
1517.14	0.4
1517.5	0.4
1517.86	0.08
1518.23	0
1518.59	0
1518.96	0.28
1519.32	0.28
1519.69	0.28
1520.05	0.28
1520.41	0.28
1520.78	0
1521.14	0.04
1521.51	0.08
1521.87	0.12
1522.24	0.12
1522.6	0.4
1522.96	0.36
1523.33	0.32
1523.69	0.64
1524.06	0.68
1524.42	0.4
1524.78	0.56
1525.15	0.56
1525.51	0.2
1525.88	0.16
1526.24	0.16
1526.6	0.12
1526.97	0.12
1527.33	0.16
1527.69	0.28
1528.06	0.36
1528.42	0.48
1528.79	0.48
1529.15	-0.36
1529.51	-0.44
1529.88	-0.52
1530.24	-0.76
1530.6	-0.76
1530.97	0.36
1531.33	0.4
1531.69	0.4
1532.06	0.4
1532.42	0.4
1532.78	0.48
1533.15	0.4
1533.51	0.4
1533.87	0.4
1534.24	0.52
1534.6	0.16
1534.96	0.16
1535.33	0.16
1535.69	0.2
1536.05	0.08
1536.42	0.08
1536.78	0.08
1537.14	0.08
1537.51	0.36
1537.87	0.36
1538.23	0.4
1538.6	0.6
1538.96	0.8
1539.32	0.48
1539.68	0.48
1540.05	0.4
1540.41	0.2
1540.77	0
1541.14	0
1541.5	0
1541.86	0.16
1542.23	0.16
1542.59	0.32
1542.95	0.36
1543.31	0.36
1543.68	0.4
1544.04	0.44
1544.4	0.28
1544.76	0.24
1545.13	0.24
1545.49	0.12
1545.85	0.08
1546.21	0.08
1546.58	0.12
1546.94	0.28
1547.3	0.52
1547.66	0.52
1548.03	0.64
1548.39	0.6
1548.75	0.52
1549.11	0.2
1549.48	0.56
1549.84	0.44
1550.2	0.44
1550.56	0.36
1550.93	0.4
1551.29	0.04
1551.65	0.16
1552.01	0.16
1552.37	0.16
1552.74	0.12
1553.1	0.12
1553.46	0
1553.82	0
1554.18	0.08
1554.55	0.08
1554.91	0.08
1555.27	0.08
1555.63	0.12
1555.99	0.08
1556.36	0.16
1556.72	-1.44
1557.08	-1.44
1557.44	-1.12
1557.8	-0.88
1558.17	-0.88
1558.53	0.76
1558.89	0.76
1559.25	0.4
1559.61	0.12
1559.97	0.12
1560.34	0.08
1560.7	0.08
1561.06	0.28
1561.42	0.36
1561.78	0.28
1562.14	-0.12
1562.5	-0.04
1562.87	0.08
1563.23	2.88669e-17
1563.59	-0.36
1563.95	0.16
1564.31	0.24
1564.67	-0.08
1565.03	-0.08
1565.4	0.28
1565.76	0.16
1566.12	0.12
1566.48	0.28
1566.84	0.28
1567.2	0.28
1567.56	0.08
1567.92	-0.04
1568.29	-0.2
1568.65	-0.2
1569.01	-0.2
1569.37	-0.4
1569.73	-0.28
1570.09	-0.28
1570.45	-0.28
1570.81	-0.24
1571.17	0.16
1571.53	0.2
1571.89	0.4
1572.26	0.48
1572.62	0.56
1572.98	0.68
1573.34	0.52
1573.7	0.36
1574.06	0.28
1574.42	0.16
1574.78	0.04
1575.14	0.04
1575.5	0.32
1575.86	-0.48
1576.22	-0.48
1576.58	-0.28
1576.94	-0.2
1577.3	-0.52
1577.67	0.36
1578.03	0.4
1578.39	0.64
1578.75	0.64
1579.11	0.64
1579.47	0.68
1579.83	0.64
1580.19	0.28
1580.55	0.2
1580.91	0.2
1581.27	0.12
1581.63	0.28
1581.99	0.28
1582.35	0.72
1582.71	1.12
1583.07	1.16
1583.43	1
1583.79	0.96
1584.15	0.52
1584.51	0.12
1584.87	0.08
1585.23	0.36
1585.59	0.32
1585.95	0.32
1586.31	0.32
1586.67	0.28
1587.03	0.04
1587.39	0.08
1587.75	0.2
1588.11	0.4
1588.47	0.4
1588.83	0.36
1589.19	0.4
1589.55	0.28
1589.91	0.08
1590.27	0.08
1590.63	0.12
1590.99	0.6
1591.35	0.76
1591.71	0.76
1592.07	0.84
1592.42	1
1592.78	0.44
1593.14	0.48
1593.5	0.6
1593.86	0.76
1594.22	1.08
1594.58	1.32
1594.94	1.12
1595.3	1
1595.66	0.76
1596.02	0.4
1596.38	0.52
1596.74	0.64
1597.1	0.72
1597.46	1.08
1597.81	1.2
1598.17	0.84
1598.53	0.72
1598.89	0.64
1599.25	0.36
1599.61	0.36
1599.97	0.64
1600.33	0.76
1600.69	0.92
1601.05	0.84
1601.4	0.8
1601.76	0.12
1602.12	0.08
1602.48	-0.08
1602.84	-0.08
1603.2	-0.28
1603.56	0.24
1603.92	0.32
1604.28	0.48
1604.63	0.48
1604.99	0.44
1605.35	0.32
1605.71	0.16
1606.07	0.08
1606.43	0.16
1606.79	0.16
1607.14	0.24
1607.5	0.28
1607.86	0.48
1608.22	0.4
1608.58	0.4
1608.94	0.52
1609.29	0.48
1609.65	0
1610.01	0
1610.37	0.12
1610.73	0.12
1611.09	0.68
1611.44	0.88
1611.8	1.16
1612.16	1.08
1612.52	1.24
1612.88	0.68
1613.24	0.72
1613.59	0.44
1613.95	0.4
1614.31	0.32
1614.67	0.32
1615.03	0.48
1615.38	0.8
1615.74	0.8
1616.1	0.52
1616.46	0.8
1616.82	0.88
1617.17	0.56
1617.53	0.8
1617.89	0.8
1618.25	0.68
1618.6	0.4
1618.96	0.4
1619.32	0.64
1619.68	0.64
1620.04	0.48
1620.39	0.4
1620.75	0.4
1621.11	-0.08
1621.47	0.28
1621.82	0.36
1622.18	0.48
1622.54	0.56
1622.9	0.92
1623.25	-0.44
1623.61	-0.52
1623.97	-0.56
1624.33	-0.64
1624.68	-0.68
1625.04	0.36
1625.4	0.36
1625.75	0.12
1626.11	0.12
1626.47	-0.16
1626.83	0.2
1627.18	0.2
1627.54	0.44
1627.9	0.52
1628.26	0.48
1628.61	0.4
1628.97	0.48
1629.33	0.48
1629.68	0.44
1630.04	0.76
1630.4	0.12
1630.75	0.12
1631.11	0.12
1631.47	0.16
1631.83	-0.12
1632.18	0.56
1632.54	0.56
1632.9	0.76
1633.25	0.72
1633.61	0.72
1633.97	0.36
1634.32	0.28
1634.68	0.08
1635.04	0.08
1635.39	0.04
1635.75	0.04
1636.11	0.12
1636.46	0.16
1636.82	0.24
1637.18	0.24
1637.53	0.24
1637.89	0.24
1638.25	0.32
1638.6	0.2
1638.96	0.2
1639.31	0.2
1639.67	0.12
1640.03	0.08
1640.38	0.24
1640.74	0.24
1641.1	0.24
1641.45	0.24
1641.81	0.16
1642.16	0.04
1642.52	0.04
1642.88	0.2
1643.23	-0.36
1643.59	-0.36
1643.95	-0.4
1644.3	-0.4
1644.66	-0.52
1645.01	0.04
1645.37	0.04
1645.73	0.04
1646.08	0.04
1646.44	0.08
1646.79	2.88669e-17
1647.15	2.88669e-17
1647.51	2.88669e-17
1647.86	0.12
1648.22	0.04
1648.57	-0.68
1648.93	-0.68
1649.28	-0.68
1649.64	-0.6
1650	-0.6
1650.35	0.2
1650.71	0.2
1651.06	0.24
1651.42	0.32
1651.77	0.12
1652.13	0.12
1652.48	0.36
1652.84	0.52
1653.2	0.24
1653.55	0.64
1653.91	0.64
1654.26	0.76
1654.62	0.56
1654.97	0.72
1655.33	0.52
1655.68	0.88
1656.04	0.52
1656.39	0.56
1656.75	0.48
1657.1	0.48
1657.46	0.12
1657.81	0.24
1658.17	0.36
1658.52	0.4
1658.88	0.48
1659.23	0.68
1659.59	0.72
1659.94	0.64
1660.3	0.84
1660.65	1.08
1661.01	0.96
1661.36	0.8
1661.72	0.96
1662.07	0.68
1662.43	0.52
1662.78	0.48
1663.14	0.48
1663.49	0.48
1663.85	0.48
1664.2	0.36
1664.56	0.52
1664.91	-1.08
1665.27	-1.16
1665.62	-0.72
1665.98	-0.56
1666.33	-0.76
1666.69	1.08
1667.04	1.16
1667.39	0.68
1667.75	0.64
1668.1	0.96
1668.46	0.88
1668.81	0.92
1669.17	1
1669.52	1.16
1669.88	0.84
1670.23	0.96
1670.58	0.84
1670.94	1.08
1671.29	1.48
1671.65	2.12
1672	2.32
1672.36	2.56
1672.71	2.8
1673.06	2.12
1673.42	1.32
1673.77	1.04
1674.13	0.84
1674.48	0.6
1674.83	0.84
1675.19	1.28
1675.54	1.76
1675.9	2.4
1676.25	2.56
1676.6	2.8
1676.96	3.32
1677.31	3.36
1677.67	2.64
1678.02	2.16
1678.37	2.12
1678.73	1.72
1679.08	1.4
1679.43	1.6
1679.79	2.4
1680.14	2.04
1680.5	2.2
1680.85	2.32
1681.2	2.68
1681.56	2.64
1681.91	3.24
1682.26	3.8
1682.62	4.08
1682.97	3.8
1683.32	3.56
1683.68	3.72
1684.03	2.96
1684.38	2.4
1684.74	2.52
1685.09	2.4
1685.44	2.84
1685.8	2.92
1686.15	3.4
1686.5	3.2
1686.86	3.16
1687.21	2.04
1687.56	2.36
1687.92	2.2
1688.27	2.04
1688.62	2.88
1688.98	3.04
1689.33	2.68
1689.68	3.6
1690.03	4.04
1690.39	4.48
1690.74	4.28
1691.09	4.16
1691.45	3.12
1691.8	2.8
1692.15	1.32
1692.5	2
1692.86	2.04
1693.21	2.16
1693.56	2.28
1693.92	2.48
1694.27	1.8
1694.62	2.08
1694.97	1.72
1695.33	1.32
1695.68	0.96
1696.03	1.88
1696.38	2.2
1696.74	2.56
1697.09	3.08
1697.44	4.12
1697.79	3.68
1698.15	3.56
1698.5	3.24
1698.85	3.16
1699.2	1.4
1699.56	1.4
1699.91	0.64
1700.26	1.12
1700.61	0.8
1700.97	1.8
1701.32	1.56
1701.67	2.08
1702.02	1.56
1702.37	1.84
1702.73	1.72
1703.08	1.88
1703.43	1.84
1703.78	1.68
1704.13	1.52
1704.49	1.52
1704.84	1.44
1705.19	1.08
1705.54	1.48
1705.89	2.4
1706.25	2.68
1706.6	2.44
1706.95	2.84
1707.3	3.64
1707.65	2.6
1708.01	3.32
1708.36	3.68
1708.71	4.04
1709.06	3.04
1709.41	3.52
1709.76	3.2
1710.12	2.76
1710.47	2.48
1710.82	2.88
1711.17	2.92
1711.52	2.88
1711.87	2.96
1712.23	3.32
1712.58	3
1712.93	2.56
1713.28	2.72
1713.63	2.64
1713.98	2.4
1714.33	3.44
1714.69	4.12
1715.04	4.16
1715.39	4.44
1715.74	4.56
1716.09	3.88
1716.44	3.72
1716.79	3.2
1717.14	3.64
1717.5	3.48
1717.85	3.72
1718.2	4
1718.55	4
1718.9	3.92
1719.25	3.4
1719.6	3.6
1719.95	2.92
1720.3	3.28
1720.65	2.88
1721.01	2.76
1721.36	2.8
1721.71	4.08
1722.06	3.24
1722.41	3.28
1722.76	3.8
1723.11	3
1723.46	2.32
1723.81	2.88
1724.16	3.16
1724.51	3.52
1724.86	3.72
1725.21	4.36
1725.56	4.8
1725.92	5
1726.27	4.76
1726.62	4.88
1726.97	4.8
1727.32	3.52
1727.67	3.76
1728.02	4.08
1728.37	4.32
1728.72	3.8
1729.07	4.68
1729.42	4.04
1729.77	4.2
1730.12	3.88
1730.47	3.08
1730.82	3.04
1731.17	2.76
1731.52	3.12
1731.87	3.08
1732.22	3.6
1732.57	4.28
1732.92	5.08
1733.27	4.48
1733.62	5.16
1733.97	4.96
1734.32	5.56
1734.67	5.44
1735.02	5.64
1735.37	5.76
1735.72	6.36
1736.07	5.28
1736.42	4.56
1736.77	3.88
1737.12	3.24
1737.47	2.4
1737.82	2.24
1738.17	2.56
1738.52	3.36
1738.87	3.32
1739.22	3.6
1739.57	3.92
1739.92	3.56
1740.27	2.8
1740.62	3.12
1740.97	3.08
1741.32	2.8
1741.67	2.84
1742.02	2.88
1742.37	2.4
1742.72	2.6
1743.06	2.76
1743.41	3.32
1743.76	3.84
1744.11	2.24
1744.46	1.84
1744.81	1.36
1745.16	1.32
1745.51	0.48
1745.86	2.08
1746.21	2.24
1746.56	2.52
1746.91	2.44
1747.26	2.68
1747.6	2.32
1747.95	2.56
1748.3	2.12
1748.65	1.72
1749	1.92
1749.35	1.8
1749.7	1.8
1750.05	1.8
1750.4	1.84
1750.75	1.84
1751.09	1.8
1751.44	1.24
1751.79	0.64
1752.14	0.64
1752.49	0.04
1752.84	0.12
1753.19	0.44
1753.54	1.44
1753.88	1.16
1754.23	1.08
1754.58	1.28
1754.93	1
1755.28	0.56
1755.63	0.6
1755.98	0.68
1756.32	0.56
1756.67	0.56
1757.02	0.76
1757.37	1.08
1757.72	1
1758.07	0.92
1758.42	0.96
1758.76	1.32
1759.11	0.88
1759.46	0.96
1759.81	0.96
1760.16	1.36
1760.5	0.72
1760.85	0.6
1761.2	0.76
1761.55	1.52
1761.9	1.16
1762.25	1.12
1762.59	2.2
1762.94	2.44
1763.29	1.6
1763.64	1.68
1763.99	2.28
1764.33	2.2
1764.68	1.96
1765.03	2.12
1765.38	2.64
1765.73	2.6
1766.07	1.96
1766.42	3
1766.77	3.32
1767.12	2.88
1767.46	3.52
1767.81	4.64
1768.16	5.28
1768.51	5.88
1768.85	6.92
1769.2	8.24
1769.55	8.64
1769.9	8.52
1770.25	8.72
1770.59	9.72
1770.94	9.72
1771.29	9.56
1771.64	10.72
1771.98	12.08
1772.33	12.48
1772.68	13.6
1773.02	13.6
1773.37	15.56
1773.72	16.88
1774.07	18.32
1774.41	19.56
1774.76	21.44
1775.11	20.8
1775.46	21.52
1775.8	19.92
1776.15	20.24
1776.5	23.36
1776.84	21.64
1777.19	24.08
1777.54	29.84
1777.89	32.76
1778.23	32.72
1778.58	39.76
1778.93	41.16
1779.27	39.4
1779.62	40.12
1779.97	42.68
1780.31	42.64
1780.66	43.6
1781.01	44.68
1781.35	49.44
1781.7	52.08
1782.05	53
1782.39	54.84
1782.74	58.16
1783.09	58.36
1783.43	60.28
1783.78	63.16
1784.13	67.32
1784.47	66.64
1784.82	62.64
1785.17	64.36
1785.51	63.2
1785.86	63.68
1786.21	73.32
1786.55	80.92
1786.9	87.04
1787.25	93.24
1787.59	93.48
1787.94	91.92
1788.29	91.4
1788.63	86.84
1788.98	89.84
1789.32	93
1789.67	88.76
1790.02	86.08
1790.36	91.76
1790.71	96.68
1791.06	103.24
1791.4	114.6
1791.75	128.12
1792.09	144.72
1792.44	152.96
1792.79	154.52
1793.13	165.32
1793.48	170.32
1793.82	158.44
1794.17	153.12
1794.52	149.64
1794.86	139.76
1795.21	136.44
1795.55	120.88
1795.9	103.68
1796.24	119.2
1796.59	137.2
1796.94	154.88
1797.28	183.44
1797.63	202.8
1797.97	196.6
1798.32	181.76
1798.66	174.6
1799.01	179.92
1799.36	178.84
1799.7	180.8
1800.05	193.2
1800.39	183.36
1800.74	182.76
1801.08	211.56
1801.43	229.44
1801.77	232.72
1802.12	239.32
1802.46	245.24
1802.81	234.08
1803.15	218.08
1803.5	211.04
1803.85	205.76
1804.19	182.04
1804.54	176.52
1804.88	179.48
1805.23	175.32
1805.57	191.44
1805.92	226.44
1806.26	239.12
1806.61	238.16
1806.95	251.12
1807.3	276.8
1807.64	285.48
1807.99	288.28
1808.33	299.16
1808.68	287.6
1809.02	278.92
1809.37	295.32
1809.71	303.28
1810.06	313.4
1810.4	324.48
1810.75	299.56
1811.09	281.16
1811.43	304.36
1811.78	335.24
1812.12	384.08
1812.47	417.12
1812.81	417.44
1813.16	406.08
1813.5	381.2
1813.85	347.68
1814.19	339.24
1814.54	322.08
1814.88	294.92
1815.23	276.4
1815.57	240.96
1815.91	196.64
1816.26	188.88
1816.6	215.56
1816.95	234.48
1817.29	266.08
1817.64	316.28
1817.98	364.96
1818.32	389.84
1818.67	402.64
1819.01	423.56
1819.36	433.48
1819.7	397.08
1820.05	366.48
1820.39	371.16
1820.73	354.36
1821.08	345.16
1821.42	353.84
1821.77	330.28
1822.11	286.72
1822.45	276.4
1822.8	255.56
1823.14	223.64
1823.49	247.56
1823.83	306.84
1824.17	346.56
1824.52	384.4
1824.86	421.88
1825.2	417.16
1825.55	375.92
1825.89	324.76
1826.24	301.4
1826.58	335.68
1826.92	345.44
1827.27	354.36
1827.61	392.32
1827.95	390.4
1828.3	342.16
1828.64	317.72
1828.98	285.4
1829.33	253.52
1829.67	298.08
1830.02	322.88
1830.36	339.52
1830.7	405.96
1831.05	436.56
1831.39	398.8
1831.73	391.08
1832.08	385.36
1832.42	342.68
1832.76	330.32
1833.1	314.08
1833.45	286.52
1833.79	276.36
1834.13	264.04
1834.48	252.52
1834.82	263.4
1835.16	269.24
1835.51	262.36
1835.85	265.04
1836.19	252.56
1836.54	221.12
1836.88	206.24
1837.22	180.88
1837.56	159.44
1837.91	167.24
1838.25	194.12
1838.59	213.76
1838.94	240.92
1839.28	251.96
1839.62	240.92
1839.96	229.24
1840.31	203.12
1840.65	171.52
1840.99	179.08
1841.34	224.96
1841.68	240.44
1842.02	266.76
1842.36	303.2
1842.71	283.84
1843.05	227.64
1843.39	227.28
1843.73	238.92
1844.08	256.24
1844.42	306.24
1844.76	338.92
1845.1	321.92
1845.45	294.68
1845.79	273.92
1846.13	249.6
1846.47	236.8
1846.81	223.16
1847.16	221.32
1847.5	233.48
1847.84	246.44
1848.18	256.4
1848.53	277.44
1848.87	283
1849.21	262.2
1849.55	240.84
1849.89	223.4
1850.24	205.48
1850.58	195.8
1850.92	185.48
1851.26	176.64
1851.6	176.32
1851.95	170.92
1852.29	164.96
1852.63	167.64
1852.97	158.32
1853.31	141.68
1853.66	133.56
1854	120
1854.34	118.96
1854.68	139.12
1855.02	148.44
1855.36	151.52
1855.71	163.8
1856.05	152.68
1856.39	125.76
1856.73	112.88
1857.07	104.24
1857.41	96.32
1857.76	96.36
1858.1	93.52
1858.44	88.08
1858.78	91.2
1859.12	82
1859.46	68.76
1859.8	63.56
1860.15	57.92
1860.49	64.12
1860.83	80.76
1861.17	91.48
1861.51	91.36
1861.85	95.36
1862.19	77.04
1862.53	62.56
1862.88	60.52
1863.22	59.6
1863.56	55.56
1863.9	58.44
1864.24	57.92
1864.58	50.08
1864.92	47.96
1865.26	46.12
1865.6	40.48
1865.94	33.04
1866.29	27.84
1866.63	23.16
1866.97	21.12
1867.31	19.08
1867.65	16.8
1867.99	19
1868.33	17.08
1868.67	14.28
1869.01	14.68
1869.35	23.6
1869.69	35.8
1870.03	44.6
1870.37	52.88
1870.72	58.12
1871.06	49.56
1871.4	33.28
1871.74	23.84
1872.08	17.2
1872.42	19.48
1872.76	30.52
1873.1	34.48
1873.44	35.96
1873.78	33.72
1874.12	25.84
1874.46	16.96
1874.8	20.16
1875.14	28.24
1875.48	31.52
1875.82	33.28
1876.16	33.6
1876.5	32.6
1876.84	26.96
1877.18	25.16
1877.52	22.04
1877.86	17
1878.2	10.04
1878.54	5.32
1878.88	3.52
1879.22	3.28
1879.56	3.32
1879.9	3.88
1880.24	5.32
1880.58	6.96
1880.92	8.84
1881.26	10.28
1881.6	10.04
1881.94	9.16
1882.28	9.24
1882.62	12.12
1882.96	17.84
1883.3	22.4
1883.64	22.6
1883.98	21.52
1884.32	16.64
1884.66	10.16
1885	5.8
1885.34	7.48
1885.68	8.92
1886.02	10.64
1886.36	10.16
1886.7	9.6
1887.04	9.68
1887.38	9.56
1887.72	9.24
1888.06	9.6
1888.39	12.88
1888.73	15.56
1889.07	25.08
1889.41	30.88
1889.75	34.32
1890.09	39.72
1890.43	42.56
1890.77	33.32
1891.11	26.84
1891.45	23.6
1891.79	16.8
1892.13	11.12
1892.47	13.08
1892.8	15.48
1893.14	18.8
1893.48	23
1893.82	27.32
1894.16	25.28
1894.5	24.48
1894.84	25.32
1895.18	23.48
1895.52	20.8
1895.86	24.72
1896.19	28.12
1896.53	27.32
1896.87	31.48
1897.21	33.56
1897.55	33.68
1897.89	35.84
1898.23	43.6
1898.57	41.32
1898.9	41.84
1899.24	44.6
1899.58	42.8
1899.92	37.56
1900.26	40.68
1900.6	42.08
1900.94	41.16
1901.27	44.84
1901.61	46.88
1901.95	45.16
1902.29	46.52
1902.63	49
1902.97	49.48
1903.3	50.44
1903.64	54.88
1903.98	54.76
1904.32	55
1904.66	55.6
1905	57.28
1905.33	56.56
1905.67	60.72
1906.01	64.16
1906.35	65.92
1906.69	65.56
1907.02	66.48
1907.36	65.28
1907.7	64.96
1908.04	65.84
1908.38	69.08
1908.71	68.36
1909.05	70.88
1909.39	72.44
1909.73	72.92
1910.07	71.8
1910.4	73.28
1910.74	73.16
1911.08	72.88
1911.42	73.04
1911.76	74.44
1912.09	75.4
1912.43	76.52
1912.77	76.2
1913.11	76.64
1913.44	78.04
1913.78	81.24
1914.12	81.56
1914.46	83
1914.79	86.16
1915.13	86.44
1915.47	85.4
1915.81	87.36
1916.14	89
1916.48	87.36
1916.82	88.08
1917.16	89.4
1917.49	88.96
1917.83	88.16
1918.17	89.16
1918.5	89.28
1918.84	89.12
1919.18	89.76
1919.52	92.32
1919.85	93.96
1920.19	95.2
1920.53	97.2
1920.87	97.76
1921.2	94.96
1921.54	96.76
1921.88	98.96
1922.21	98.24
1922.55	100.56
1922.89	104.12
1923.22	103.24
1923.56	101.88
1923.9	104.6
1924.23	102.76
1924.57	100.16
1924.91	102.12
1925.25	101.96
1925.58	100.12
1925.92	102.32
1926.26	106.28
1926.59	104.32
1926.93	106.32
1927.27	108.4
1927.6	106.88
1927.94	105.4
1928.28	106.88
1928.61	105.76
1928.95	104.32
1929.29	106.12
1929.62	108.24
1929.96	107.36
1930.29	109.88
1930.63	112.28
1930.97	111.92
1931.3	111.76
1931.64	113.4
1931.98	111.56
1932.31	109.8
1932.65	111.68
1932.99	109.92
1933.32	111.64
1933.66	113.52
1933.99	114.36
1934.33	112.48
1934.67	114.56
1935	114
1935.34	113.28
1935.67	113.88
1936.01	116
1936.35	115.64
1936.68	114.44
1937.02	115.56
1937.35	114.96
1937.69	115.68
1938.03	117
1938.36	115
1938.7	116.24
1939.03	116.76
1939.37	115.68
1939.7	114.28
1940.04	117.8
1940.38	115.44
1940.71	116.52
1941.05	118.16
1941.38	120.36
1941.72	118.48
1942.05	120.64
1942.39	120.44
1942.73	119.36
1943.06	120.12
1943.4	121.88
1943.73	119.84
1944.07	119.88
1944.4	120.52
1944.74	118
1945.07	117.84
1945.41	120.8
1945.74	122.08
1946.08	121.64
1946.42	123.36
1946.75	122.92
1947.09	121.04
1947.42	120.68
1947.76	121.24
1948.09	120.8
1948.43	121.64
1948.76	122.32
1949.1	120.8
1949.43	118.56
1949.77	117.68
1950.1	117.36
1950.44	116.28
1950.77	117.88
1951.11	120.64
1951.44	120.36
1951.78	120.2
1952.11	121.72
1952.45	120.12
1952.78	117.44
1953.12	118.6
1953.45	118.84
1953.79	117.16
1954.12	117.72
1954.46	119.36
1954.79	118.52
1955.12	117.36
1955.46	118.76
1955.79	119.92
1956.13	117.72
1956.46	117.68
1956.8	117.8
1957.13	115.92
1957.47	113.52
1957.8	115.76
1958.14	113.96
1958.47	111.76
1958.8	110.28
1959.14	110.8
1959.47	107.84
1959.81	107.36
1960.14	108.76
1960.48	110.68
1960.81	108.2
1961.14	108
1961.48	110.56
1961.81	110.04
1962.15	106.6
1962.48	108.48
1962.82	107
1963.15	104.4
1963.48	103.2
1963.82	105.12
1964.15	103.24
1964.49	103.2
1964.82	101.96
1965.15	103.04
1965.49	100.72
1965.82	99.48
1966.16	100.2
1966.49	100.96
1966.82	98.28
1967.16	98
1967.49	98.72
1967.83	97.8
1968.16	94.84
1968.49	95.64
1968.83	95.64
1969.16	93.56
1969.49	92
1969.83	91.24
1970.16	89
1970.49	87.8
1970.83	89.2
1971.16	89.44
1971.5	86.96
1971.83	85.52
1972.16	84.12
1972.5	79.68
1972.83	75.88
1973.16	78.24
1973.5	77.32
1973.83	75.52
1974.16	76.12
1974.5	77.72
1974.83	75.64
1975.16	74.72
1975.5	73.48
1975.83	72.96
1976.16	70.8
1976.49	70.52
1976.83	68.6
1977.16	67.68
1977.49	65.44
1977.83	64.92
1978.16	63.48
1978.49	63.04
1978.83	61.72
1979.16	58.16
1979.49	56.76
1979.83	54.92
1980.16	54.08
1980.49	53.16
1980.82	53.68
1981.16	51
1981.49	49.44
1981.82	47.6
1982.15	46.2
1982.49	45.8
1982.82	45.72
1983.15	44.24
1983.49	43.04
1983.82	42.24
1984.15	40.92
1984.48	39.92
1984.82	38.68
1985.15	37.56
1985.48	38.08
1985.81	36.04
1986.15	33.76
1986.48	33.32
1986.81	32.72
1987.14	29.04
1987.48	28.2
1987.81	27.52
1988.14	25.88
1988.47	24.88
1988.81	25.44
1989.14	25.44
1989.47	24.48
1989.8	23.84
1990.13	22
1990.47	20
1990.8	18.12
1991.13	18.16
1991.46	16.16
1991.79	14.92
1992.13	14.28
1992.46	14.16
1992.79	12.52
1993.12	13.4
1993.45	14.04
1993.79	13.28
1994.12	12.48
1994.45	12.76
1994.78	11.28
1995.11	10.92
1995.45	9.52
1995.78	9.52
1996.11	8.8
1996.44	8.08
1996.77	6.76
1997.1	7
1997.44	5.88
1997.77	5.24
1998.1	5.76
1998.43	6.48
1998.76	6.44
1999.09	6.56
1999.43	5.32
1999.76	5
2000.09	3.64
2000.42	4.2
2000.75	2.52
2001.08	3.2
2001.41	3.04
2001.75	3.4
2002.08	2.24
2002.41	3.6
2002.74	3.28
2003.07	2.92
2003.4	2.52
2003.73	3.6
2004.06	3.52
2004.4	3.48
2004.73	4.04
2005.06	4.52
2005.39	3.64
2005.72	3.56
2006.05	3.96
2006.38	3.6
2006.71	3.36
2007.04	3.52
2007.37	2.8
2007.71	2.76
2008.04	2.92
2008.37	3.24
2008.7	2.92
2009.03	3.68
2009.36	4.12
2009.69	4.16
2010.02	4.24
2010.35	4.52
2010.68	4.8
2011.01	4.68
2011.34	4.84
2011.67	4.64
2012.01	5.08
2012.34	5.64
2012.67	5.88
2013	5.88
2013.33	6.36
2013.66	5.72
2013.99	5.6
2014.32	5.6
2014.65	5.36
2014.98	6.08
2015.31	6.44
2015.64	6.72
2015.97	6.72
2016.3	7.16
2016.63	6
2016.96	6.64
2017.29	6.16
2017.62	5.84
2017.95	6.76
2018.28	7.96
2018.61	7.88
2018.94	7.4
2019.27	8.16
2019.6	7.44
2019.93	8.08
2020.26	8.96
2020.59	8.92
2020.92	8.88
2021.25	8.92
2021.58	8.2
2021.91	7.64
2022.24	9.4
2022.57	9.92
2022.9	10.88
2023.23	10.8
2023.56	11.6
2023.89	10.48
2024.22	10.72
2024.55	10.56
2024.88	10.84
2025.21	10.12
2025.54	11.68
2025.87	12.96
2026.2	12.6
2026.53	11.6
2026.86	12.2
2027.19	12.4
2027.52	10.44
2027.85	10.48
2028.18	12.96
2028.51	13.4
2028.84	11.6
2029.16	12.2
2029.49	13.48
2029.82	10.84
2030.15	10.32
2030.48	11.12
2030.81	10.76
2031.14	8.8
2031.47	9.96
2031.8	8.68
2032.13	8.72
2032.46	9.24
2032.79	9.76
2033.12	9.76
2033.44	11.2
2033.77	10.56
2034.1	10.48
2034.43	11.36
2034.76	11.36
2035.09	10.96
2035.42	11.16
2035.75	10.84
2036.08	9.44
2036.41	9.12
2036.73	8.52
2037.06	8.76
2037.39	8.76
2037.72	8.84
2038.05	7.76
2038.38	9.6
2038.71	9.96
2039.04	8.72
2039.36	8.24
2039.69	10.16
2040.02	8.36
2040.35	7.4
2040.68	7.44
2041.01	8.28
2041.34	7.48
2041.66	7.12
2041.99	7.44
2042.32	7.56
2042.65	7.08
2042.98	6.28
2043.31	5.8
2043.63	4.76
2043.96	5.04
2044.29	5
2044.62	4.8
2044.95	5
2045.28	5.24
2045.6	4.92
2045.93	5.2
2046.26	5.88
2046.59	5.96
2046.92	6.28
2047.24	6
2047.57	5.48
2047.9	5.36
2048.23	6.2
2048.56	5.68
2048.88	6.24
2049.21	6.32
2049.54	5.64
2049.87	5
2050.2	5.28
2050.52	4.36
2050.85	4.08
2051.18	4.6
2051.51	3.64
2051.83	3.24
2052.16	3.56
2052.49	3.56
2052.82	3.08
2053.15	3.4
2053.47	3.12
2053.8	2.6
2054.13	3.16
2054.46	2.6
2054.78	2.72
2055.11	2.88
2055.44	3
2055.77	1.88
2056.09	2.2
2056.42	2.12
2056.75	1.92
2057.08	2.32
2057.4	2.52
2057.73	2.32
2058.06	1.92
2058.38	2.32
2058.71	3.28
2059.04	3.48
2059.37	3.4
2059.69	3.8
2060.02	3.84
2060.35	3.24
2060.67	3.12
2061	3.96
2061.33	3.72
2061.66	3.12
2061.98	2.12
2062.31	1.88
2062.64	0.96
2062.96	1.2
2063.29	1.44
2063.62	1.48
2063.94	1.76
2064.27	1.56
2064.6	0.64
2064.92	0.28
2065.25	0.36
2065.58	0.8
2065.91	1.24
2066.23	1.64
2066.56	1.76
2066.89	1.96
2067.21	1.28
2067.54	1.28
2067.87	1.32
2068.19	1.32
2068.52	0.96
2068.84	1.52
2069.17	1.16
2069.5	1.4
2069.82	1.2
2070.15	1.6
2070.48	0.92
2070.8	1.2
2071.13	1.12
2071.46	1.64
2071.78	1.32
2072.11	1.2
2072.43	0.84
2072.76	0.72
2073.09	0.32
2073.41	0.56
2073.74	0.72
2074.07	0.92
2074.39	0.92
2074.72	0.8
2075.04	0.48
2075.37	0.28
2075.7	0.24
2076.02	0.16
2076.35	0.48
2076.67	0.64
2077	0.92
2077.33	1.2
2077.65	1.2
2077.98	0.88
2078.3	0.8
2078.63	0.52
2078.95	0.08
2079.28	0.28
2079.61	-0.16
2079.93	-4.2189e-17
2080.26	-4.2189e-17
2080.58	0.28
2080.91	0.24
2081.23	0.8
2081.56	0.56
2081.89	0.84
2082.21	0.68
2082.54	0.52
2082.86	0.4
2083.19	0.6
2083.51	0.32
2083.84	0.32
2084.16	0.52
2084.49	0.52
2084.81	0.32
2085.14	0.52
2085.46	0.48
2085.79	0.44
2086.12	0.52
2086.44	0.52
2086.77	0.48
2087.09	0.4
2087.42	0.28
2087.74	0.48
2088.07	0.48
2088.39	0.36
2088.72	0.4
2089.04	0.36
2089.37	0.12
2089.69	0.36
2090.02	0.32
2090.34	-0.04
2090.67	0.12
2090.99	-2.12
2091.32	-2.24
2091.64	-2.12
2091.97	-1.56
2092.29	-1.64
2092.62	0.6
2092.94	0.48
2093.26	0.6
2093.59	0.44
2093.91	-0.64
2094.24	-0.6
2094.56	-0.52
2094.89	-0.6
2095.21	-0.6
2095.54	0.56
2095.86	0.56
2096.19	0.76
2096.51	0.72
2096.84	0.72
2097.16	0.6
2097.48	0.52
2097.81	0.24
2098.13	0.6
2098.46	0.44
2098.78	0.4
2099.11	0.68
2099.43	0.72
2099.75	0.68
2100.08	1.28
2100.4	1.28
2100.73	1.68
2101.05	1.92
2101.38	1.76
2101.7	1.44
2102.02	1.84
2102.35	1.52
2102.67	1.32
2103	1.56
2103.32	1.56
2103.64	1.16
2103.97	1.36
2104.29	1.32
2104.62	1.04
2104.94	1.32
2105.26	0.76
2105.59	0.48
2105.91	0.92
2106.23	0.68
2106.56	0.32
2106.88	0.88
2107.21	0.6
2107.53	0.16
2107.85	0.2
2108.18	0.08
2108.5	0.08
2108.82	0.16
2109.15	0.16
2109.47	0.28
2109.79	0.36
2110.12	0.4
2110.44	0.32
2110.76	0.52
2111.09	0.48
2111.41	0.4
2111.73	0.44
2112.06	0.44
2112.38	0.2
2112.7	-0.52
2113.03	-0.52
2113.35	-0.6
2113.67	-0.6
2114	-0.6
2114.32	0.36
2114.64	0.44
2114.97	0.48
2115.29	0.48
2115.61	0.48
2115.94	0.12
2116.26	0.04
2116.58	0.04
2116.91	-0.96
2117.23	-0.6
2117.55	-0.56
2117.87	-0.56
2118.2	-0.44
2118.52	0.56
2118.84	0.2
2119.17	0.16
2119.49	0.28
2119.81	0.12
2120.13	0.12
2120.46	0.24
2120.78	-0.68
2121.1	-0.68
2121.42	-0.68
2121.75	-0.68
2122.07	-0.72
2122.39	0.6
2122.72	0.56
2123.04	0.56
2123.36	0.76
2123.68	0.76
2124.01	0.36
2124.33	0.28
2124.65	0.4
2124.97	0.6
2125.29	0.52
2125.62	0.56
2125.94	0.56
2126.26	0.44
2126.58	0.16
2126.91	-0.68
2127.23	-0.68
2127.55	-0.68
2127.87	-0.68
2128.2	-0.44
2128.52	0.4
2128.84	0.48
2129.16	0.48
2129.48	0.76
2129.81	0.56
2130.13	0.72
2130.45	0.72
2130.77	0.72
2131.09	0.44
2131.42	0.52
2131.74	0.64
2132.06	0.64
2132.38	0.64
2132.7	0.72
2133.02	0.68
2133.35	0.48
2133.67	0.84
2133.99	1.08
2134.31	0.4
2134.63	0.24
2134.96	0.16
2135.28	-0.28
2135.6	-0.4
2135.92	0.2
2136.24	0.16
2136.56	0.16
2136.88	0.28
2137.21	0.24
2137.53	0.24
2137.85	0.24
2138.17	-0.16
2138.49	-0.04
2138.81	-0.08
2139.13	-0.04
2139.46	0.08
2139.78	0.52
2140.1	0.52
2140.42	0.48
2140.74	0.52
2141.06	0.4
2141.38	0.48
2141.7	0.36
2142.03	0.52
2142.35	0.44
2142.67	0.44
2142.99	0.32
2143.31	0.16
2143.63	0
2143.95	0
2144.27	0.28
2144.59	0.28
2144.91	0.12
2145.24	0.32
2145.56	0.64
2145.88	0.48
2146.2	0.48
2146.52	0.64
2146.84	0.44
2147.16	0.12
2147.48	0
2147.8	0
2148.12	0
2148.44	0.12
2148.76	0.36
2149.08	0.36
2149.41	0.36
2149.73	0.52
2150.05	0.4
2150.37	0.16
2150.69	0.28
2151.01	0.28
2151.33	0.12
2151.65	0.32
2151.97	0.32
2152.29	0.2
2152.61	-0.2
2152.93	0
2153.25	-0.2
2153.57	-0.2
2153.89	-0.2
2154.21	-0.16
2154.53	-0.36
2154.85	-0.36
2155.17	-0.04
2155.49	-0.24
2155.81	0.12
2156.13	0.12
2156.45	0.12
2156.77	-0.2
2157.09	0
2157.41	0.04
2157.73	0.12
2158.05	0.12
2158.37	0.24
2158.69	0.24
2159.01	0.2
2159.33	0.12
2159.65	0.32
2159.97	0.48
2160.29	0.8
2160.61	0.84
2160.93	0.84
2161.25	0.68
2161.57	0.72
2161.89	0.4
2162.21	0.4
2162.53	0.48
2162.85	-0.16
2163.17	-0.48
2163.49	-0.48
2163.81	-0.24
2164.13	-0.28
2164.45	-0.28
2164.77	-0.2
2165.08	-0.12
2165.4	-0.12
2165.72	-0.16
2166.04	0.44
2166.36	0.48
2166.68	0.4
2167	0.12
2167.32	0.2
2167.64	0.2
2167.96	0.2
2168.28	0.32
2168.6	0.32
2168.92	0.24
2169.24	0.32
2169.55	0.36
2169.87	0.28
2170.19	0.32
2170.51	0.32
2170.83	0.44
2171.15	0.28
2171.47	0.24
2171.79	0.2
2172.11	0.2
2172.43	0
2172.74	0.04
2173.06	0.04
2173.38	0.04
2173.7	0.16
2174.02	0.32
2174.34	0.36
2174.66	0.48
2174.98	0.48
2175.29	0.36
2175.61	0.2
2175.93	0.16
2176.25	0.04
2176.57	0.2
2176.89	0.2
2177.21	0.36
2177.52	0.48
2177.84	0.64
2178.16	0.48
2178.48	0.56
2178.8	0.4
2179.12	0.24
2179.43	0.08
2179.75	-0.92
2180.07	-1
2180.39	-0.96
2180.71	-0.84
2181.03	-0.72
2181.34	0.44
2181.66	0.52
2181.98	0.64
2182.3	0.6
2182.62	0.48
2182.93	2.66443e-17
2183.25	0.08
2183.57	0.04
2183.89	-0.04
2184.21	-0.04
2184.52	0.36
2184.84	0.28
2185.16	0.28
2185.48	0.4
2185.8	0.4
2186.11	0.32
2186.43	0.24
2186.75	0.12
2187.07	-0.4
2187.39	-1.2
2187.7	-1.2
2188.02	-1.8
2188.34	-1.8
2188.66	-1.08
2188.97	-0.12
2189.29	-0.12
2189.61	0.52
2189.93	0.52
2190.24	0.48
2190.56	0.36
2190.88	0.56
2191.2	0.52
2191.51	0.52
2191.83	0.44
2192.15	0.4
2192.47	0.2
2192.78	0.2
2193.1	0.2
2193.42	0
2193.74	0.08
2194.05	0.08
2194.37	0.08
2194.69	0.08
2195	2.88669e-17
2195.32	-0.08
2195.64	-0.08
2195.96	-0.08
2196.27	0.04
2196.59	-0.48
2196.91	-0.48
2197.22	-0.48
2197.54	-0.48
2197.86	-0.6
2198.18	0
2198.49	0
2198.81	0
2199.13	0
2199.44	0
2199.76	0.08
2200.08	0.08
2200.39	0.08
2200.71	0.08
2201.03	0.08
2201.34	0
2201.66	0
2201.98	0.12
2202.29	0.2
2202.61	0.2
2202.93	0.64
2203.24	0.64
2203.56	0.68
2203.88	0.76
2204.19	0.76
2204.51	0.32
2204.83	0.36
2205.14	0.2
2205.46	0.12
2205.78	0.12
2206.09	0.12
2206.41	-0.12
2206.72	-0.28
2207.04	-0.36
2207.36	-0.76
2207.67	-0.76
2207.99	-0.56
2208.31	-0.4
2208.62	-0.4
2208.94	0
2209.25	0
2209.57	0
2209.89	0.44
2210.2	0.44
2210.52	0.44
2210.83	0.84
2211.15	0.84
2211.47	0.52
2211.78	0.52
2212.1	0.12
2212.41	0.16
2212.73	0.16
2213.05	0.16
2213.36	0.16
2213.68	0.56
2213.99	0.16
2214.31	0.16
2214.62	0.04
2214.94	0.08
2215.26	0.08
2215.57	0.28
2215.89	0.28
2216.2	0.56
2216.52	0.72
2216.83	0.76
2217.15	0.52
2217.46	0.52
2217.78	0.24
2218.1	-0.16
2218.41	-0.2
2218.73	-0.2
2219.04	-0.2
2219.36	0
2219.67	0.2
2219.99	0.2
2220.3	0.28
2220.62	0.28
2220.93	0.08
2221.25	0.08
2221.56	0.08
2221.88	0.08
2222.19	0.08
2222.51	0.08
2222.82	-1.32
2223.14	-1.2
2223.45	-1.28
2223.77	-0.92
2224.08	-0.92
2224.4	0.48
2224.71	0.36
2225.03	0.44
2225.34	0.08
2225.66	-1.32
2225.97	-1.16
2226.29	-1.16
2226.6	-1.24
2226.92	-1.2
2227.23	0.24
2227.55	0.08
2227.86	0.08
2228.18	0.08
2228.49	0.04
2228.81	0.16
2229.12	0.56
2229.44	0.56
2229.75	0.56
2230.07	0.56
2230.38	0.4
2230.69	0
2231.01	0.28
2231.32	0.28
2231.64	0.44
2231.95	0.44
2232.27	0.56
2232.58	0.28
2232.9	0.68
2233.21	0.52
2233.52	0.52
2233.84	0.4
2234.15	0.56
2234.47	0.16
2234.78	0.16
2235.1	0.32
2235.41	0.32
2235.72	0.16
2236.04	0.2
2236.35	0.2
2236.67	-0.52
2236.98	-0.52
2237.29	-0.48
2237.61	-0.52
2237.92	-0.52
2238.24	0.04
2238.55	0.04
2238.86	0
2239.18	0
2239.49	-0.48
2239.8	-0.32
2240.12	-0.32
2240.43	-0.32
2240.75	-0.32
2241.06	0.16
2241.37	0
2241.69	0
2242	0
2242.31	0.2
2242.63	0.2
2242.94	0.2
2243.26	-0.4
2243.57	-0.24
2243.88	-0.44
2244.2	-0.44
2244.51	-0.44
2244.82	0.16
2245.14	0
2245.45	0
2245.76	0
2246.08	0.08
2246.39	0.08
2246.7	0.08
2247.02	0.12
2247.33	0.24
2247.64	0.16
2247.96	0.16
2248.27	0.16
2248.58	-0.88
2248.9	-1
2249.21	-1
2249.52	-1
2249.83	-1
2250.15	0
2250.46	0
2250.77	0.04
2251.09	0.04
2251.4	0.28
2251.71	0.28
2252.03	0.28
2252.34	0.24
2252.65	0.24
2252.96	0
2253.28	0
2253.59	0.12
2253.9	0.12
2254.21	0.16
2254.53	0.2
2254.84	-0.2
2255.15	-0.32
2255.47	-0.32
2255.78	-0.24
2256.09	-0.28
2256.4	0.12
2256.72	0.12
2257.03	0.12
2257.34	0
2257.65	0
2257.97	0
2258.28	0
2258.59	0.2
2258.9	0.2
2259.22	0.2
2259.53	0.2
2259.84	0.2
2260.15	0
2260.46	0
2260.78	0
2261.09	0
2261.4	0
2261.71	0
2262.03	0
2262.34	0
2262.65	0
2262.96	0
2263.27	0
2263.59	0.12
2263.9	0.12
2264.21	0.28
2264.52	0.28
2264.83	0.28
2265.15	0.16
2265.46	0.24
2265.77	0.08
2266.08	0.08
2266.39	0.16
2266.7	0.2
2267.02	0.12
2267.33	-0.28
2267.64	-0.28
2267.95	-0.36
2268.26	-0.4
2268.57	-0.4
2268.89	0.08
2269.2	0.08
2269.51	0.08
2269.82	0.08
2270.13	0.32
2270.44	0.28
2270.76	-0.12
2271.07	0.08
2271.38	-0.52
2271.69	-0.76
2272	-0.72
2272.31	-0.32
2272.62	-1.2
2272.93	-0.6
2273.25	-0.28
2273.56	-0.24
2273.87	-0.24
2274.18	0.48
2274.49	0.68
2274.8	0.44
2275.11	0.48
2275.42	0.48
2275.74	0.48
2276.05	0.28
2276.36	0.24
2276.67	0.08
2276.98	0.08
2277.29	0.04
2277.6	0.04
2277.91	0
2278.22	-0.4
2278.53	-0.4
2278.85	-0.4
2279.16	-1.2
2279.47	-1.2
2279.78	-0.8
2280.09	-0.72
2280.4	-0.72
2280.71	0.08
2281.02	0.24
2281.33	0.24
2281.64	0.32
2281.95	0.32
2282.26	0.4
2282.57	0.24
2282.88	0.24
2283.19	0.08
2283.5	0.08
2283.82	0
2284.13	0.12
2284.44	0.12
2284.75	-0.48
2285.06	-0.28
2285.37	-0.04
2285.68	-6.88333e-17
2285.99	-6.88333e-17
2286.3	0.68
2286.61	0.48
2286.92	0.48
2287.23	0.32
2287.54	0.52
2287.85	0.44
2288.16	0.44
2288.47	0.32
2288.78	0.32
2289.09	0.2
2289.4	0.28
2289.71	0.52
2290.02	0.4
2290.33	0.76
2290.64	0.68
2290.95	0.52
2291.26	0.28
2291.57	0.28
2291.88	-0.32
2292.19	-0.2
2292.5	-0.12
2292.81	-0.12
2293.12	-0.12
2293.43	0.12
2293.74	0
2294.05	0
2294.36	0
2294.67	0
2294.98	0
2295.29	0
2295.6	0
2295.91	0
2296.21	0
2296.52	0
2296.83	0
2297.14	0
2297.45	0
2297.76	0
2298.07	0
2298.38	0
2298.69	0
2299	0
2299.31	0
2299.62	0
2299.93	0
2300.24	0
2300.55	0
2300.85	0
2301.16	0
2301.47	0
2301.78	0
2302.09	0
2302.4	0
2302.71	0
2303.02	0
2303.33	0
2303.64	0
2303.94	0
2304.25	0
2304.56	0
2304.87	0
2305.18	0
2305.49	0
2305.8	0
2306.11	0
2306.42	0
2306.72	0
2307.03	0
2307.34	0
2307.65	0
2307.96	0
2308.27	0
2308.58	0
2308.88	0
2309.19	0
2309.5	0
2309.81	0
2310.12	0
2310.43	0
2310.74	0
2311.04	0
2311.35	0
2311.66	0
2311.97	0
2312.28	0
2312.59	0
2312.89	0
2313.2	0
2313.51	0
2313.82	0
2314.13	0
2314.43	0
2314.74	0
2315.05	0
2315.36	0
2315.67	0
2315.97	0
2316.28	0
2316.59	0
2316.9	0
2317.21	0
2317.51	0
2317.82	0
2318.13	0
2318.44	0
2318.75	0
2319.05	0
2319.36	0
2319.67	0
2319.98	0
2320.28	0
2320.59	0
2320.9	0
2321.21	0
2321.51	0
2321.82	0
2322.13	0
2322.44	0
2322.74	0
2323.05	0
2323.36	0
2323.67	0
2323.97	0
2324.28	0
2324.59	0
2324.9	0
2325.2	0
2325.51	0
2325.82	0
2326.13	0
2326.43	0
2326.74	0
2327.05	0
2327.35	0
2327.66	0
2327.97	0
2328.27	0
2328.58	0
2328.89	0
2329.2	0
2329.5	0
2329.81	0
2330.12	0
2330.42	0
2330.73	0
2331.04	0
2331.34	0
2331.65	0
2331.96	0
2332.26	0
2332.57	0
2332.88	0
2333.18	0
2333.49	0
2333.8	0
2334.1	0
2334.41	0
2334.72	0
2335.02	0
2335.33	0
2335.64	0
2335.94	0
2336.25	0
2336.56	0
2336.86	0
2337.17	0
2337.48	0
2337.78	0
2338.09	0
2338.39	0
2338.7	0
2339.01	0
2339.31	0
2339.62	0
2339.93	0
2340.23	0
2340.54	0
2340.84	0
2341.15	0
2341.46	0
2341.76	0
2342.07	0
2342.37	0
2342.68	0
2342.99	0
2343.29	0
2343.6	0
2343.9	0
2344.21	0
2344.51	0
2344.82	0
2345.13	0
2345.43	0
2345.74	0
2346.04	0
2346.35	0
2346.65	0
2346.96	0
2347.27	0
2347.57	0
2347.88	0
2348.18	0
2348.49	0
2348.79	0
2349.1	0
2349.4	0
2349.71	0
2350.01	0
2350.32	0
2350.63	0
2350.93	0
2351.24	0
2351.54	0
2351.85	0
2352.15	0
2352.46	0
2352.76	0
2353.07	0
2353.37	0
2353.68	0
2353.98	0
2354.29	0
2354.59	0
2354.9	0
2355.2	0
2355.51	0
2355.81	0
2356.12	0
2356.42	0
2356.73	0
2357.03	0
2357.34	0
2357.64	0
2357.95	0
2358.25	0
2358.55	0
2358.86	0
2359.16	0
2359.47	0
2359.77	0
2360.08	0
2360.38	0
2360.69	0
2360.99	0
2361.3	0
2361.6	0
2361.9	0
2362.21	0
2362.51	0
2362.82	0
2363.12	0
2363.43	0
2363.73	0
2364.04	0
2364.34	0
2364.64	0
2364.95	0
2365.25	0
2365.56	0
2365.86	0
2366.16	0
2366.47	0
2366.77	0
2367.08	0
2367.38	0
2367.68	0
2367.99	0
2368.29	0
2368.6	0
2368.9	0
2369.2	0
2369.51	0
2369.81	0
2370.12	0
2370.42	0
2370.72	0
2371.03	0
2371.33	0
2371.63	0
2371.94	0
2372.24	0
2372.55	0
2372.85	0
2373.15	0
2373.46	0
2373.76	0
2374.06	0
2374.37	0
2374.67	0
2374.97	0
2375.28	0
2375.58	0
2375.88	0
2376.19	0
2376.49	0
2376.79	0
2377.1	0
2377.4	0
2377.7	0
2378.01	0
2378.31	0
2378.61	0
2378.92	0
2379.22	0
2379.52	0
2379.82	0
2380.13	0
2380.43	0
2380.73	0
2381.04	0
2381.34	0
2381.64	0
2381.95	0
2382.25	0
2382.55	0
2382.85	0
2383.16	0
2383.46	0
2383.76	0
2384.06	0
2384.37	0
2384.67	0
2384.97	0
2385.28	0
2385.58	0
2385.88	0
2386.18	0
2386.49	0
2386.79	0
2387.09	0
2387.39	0
2387.69	0
2388	0
2388.3	0
2388.6	0
2388.9	0
2389.21	0
2389.51	0
2389.81	0
2390.11	0
2390.42	0
2390.72	0
2391.02	0
2391.32	0
2391.62	0
2391.93	0
2392.23	0
2392.53	0
2392.83	0
2393.13	0
2393.44	0
2393.74	0
2394.04	0
2394.34	0
2394.64	0
2394.95	0
2395.25	0
2395.55	0
2395.85	0
2396.15	0
2396.45	0
2396.76	0
2397.06	0
2397.36	0
2397.66	0
2397.96	0
2398.26	0
2398.57	0
2398.87	0
2399.17	0
2399.47	0
2399.77	0
2400.07	0
2400.37	0
2400.68	0
2400.98	0
2401.28	0
2401.58	0
2401.88	0
2402.18	0
2402.48	0
2402.79	0
2403.09	0
2403.39	0
2403.69	0
2403.99	0
2404.29	0
2404.59	0
2404.89	0
2405.19	0
2405.5	0
2405.8	0
2406.1	0
2406.4	0
2406.7	0
2407	0
2407.3	0
2407.6	0
2407.9	0
2408.2	0
2408.5	0
2408.8	0
2409.11	0
2409.41	0
2409.71	0
2410.01	0
2410.31	0
2410.61	0
2410.91	0
2411.21	0
2411.51	0
2411.81	0
2412.11	0
2412.41	0
2412.71	0
2413.01	0
2413.31	0
2413.61	0
2413.91	0
2414.21	0
2414.51	0
2414.81	0
2415.12	0
2415.42	0
2415.72	0
2416.02	0
2416.32	0
2416.62	0
2416.92	0
2417.22	0
2417.52	0
2417.82	0
2418.12	0
2418.42	0
2418.72	0
2419.02	0
2419.32	0
2419.62	0
2419.92	0
2420.22	0
2420.52	0
2420.82	0
2421.12	0
2421.42	0
2421.71	0
2422.01	0
2422.31	0
2422.61	0
2422.91	0
2423.21	0
2423.51	0
2423.81	0
2424.11	0
2424.41	0
2424.71	0
2425.01	0
2425.31	0
2425.61	0
2425.91	0
2426.21	0
2426.51	0
2426.81	0
2427.11	0
2427.41	0
2427.7	0
2428	0
2428.3	0
2428.6	0
2428.9	0
2429.2	0
2429.5	0
2429.8	0
2430.1	0
2430.4	0
2430.7	0
2430.99	0
2431.29	0
2431.59	0
2431.89	0
2432.19	0
2432.49	0
2432.79	0
2433.09	0
2433.39	0
2433.68	0
2433.98	0
2434.28	0
2434.58	0
2434.88	0
2435.18	0
2435.48	0
2435.78	0
2436.07	0
2436.37	0
2436.67	0
2436.97	0
2437.27	0
2437.57	0
2437.86	0
2438.16	0
2438.46	0
2438.76	0
2439.06	0
2439.36	0
2439.66	0
2439.95	0
2440.25	0
2440.55	0
2440.85	0
2441.15	0
2441.44	0
2441.74	0
2442.04	0
2442.34	0
2442.64	0
2442.93	0
2443.23	0
2443.53	0
2443.83	0
2444.13	0
2444.42	0
2444.72	0
2445.02	0
2445.32	0
2445.62	0
2445.91	0
2446.21	0
2446.51	0
2446.81	0
2447.1	0
2447.4	0
2447.7	0
2448	0
2448.3	0
2448.59	0
2448.89	0
2449.19	0
2449.49	0
2449.78	0
2450.08	0
2450.38	0
2450.68	0
2450.97	0
2451.27	0
2451.57	0
2451.87	0
2452.16	0
2452.46	0
2452.76	0
2453.05	0
2453.35	0
2453.65	0
2453.95	0
2454.24	0
2454.54	0
2454.84	0
2455.13	0
2455.43	0
2455.73	0
2456.03	0
2456.32	0
2456.62	0
2456.92	0
2457.21	0
2457.51	0
2457.81	0
2458.1	0
2458.4	0
2458.7	0
2458.99	0
2459.29	0
2459.59	0
2459.88	0
2460.18	0
2460.48	0
2460.77	0
2461.07	0
2461.37	0
2461.66	0
2461.96	0
2462.26	0
2462.55	0
2462.85	0
2463.15	0
2463.44	0
2463.74	0
2464.04	0
2464.33	0
2464.63	0
2464.92	0
2465.22	0
2465.52	0
2465.81	0
2466.11	0
2466.41	0
2466.7	0
2467	0
2467.29	0
2467.59	0
2467.89	0
2468.18	0
2468.48	0
2468.77	0
2469.07	0
2469.37	0
2469.66	0
2469.96	0
2470.25	0
2470.55	0
2470.84	0
2471.14	0
2471.44	0
2471.73	0
2472.03	0
2472.32	0
2472.62	0
2472.91	0
2473.21	0
2473.51	0
2473.8	0
2474.1	0
2474.39	0
2474.69	0
2474.98	0
2475.28	0
2475.57	0
2475.87	0
2476.17	0
2476.46	0
2476.76	0
2477.05	0
2477.35	0
2477.64	0
2477.94	0
2478.23	0
2478.53	0
2478.82	0
2479.12	0
2479.41	0
2479.71	0
2480	0
2480.3	0
2480.59	0
2480.89	0
2481.18	0
2481.48	0
2481.77	0
2482.07	0
2482.36	0
2482.66	0
2482.95	0
2483.25	0
2483.54	0
2483.84	0
2484.13	0
2484.43	0
2484.72	0
2485.02	0
2485.31	0
2485.6	0
2485.9	0
2486.19	0
2486.49	0
2486.78	0
2487.08	0
2487.37	0
2487.67	0
2487.96	0
2488.26	0
2488.55	0
2488.84	0
2489.14	0
2489.43	0
2489.73	0
2490.02	0
2490.32	0
2490.61	0
2490.9	0
2491.2	0
2491.49	0
2491.79	0
2492.08	0
2492.37	0
2492.67	0
2492.96	0
2493.26	0
2493.55	0
2493.84	0
2494.14	0
2494.43	0
2494.73	0
2495.02	0
2495.31	0
2495.61	0
2495.9	0
2496.2	0
2496.49	0
2496.78	0
2497.08	0
2497.37	0
2497.66	0
2497.96	0
2498.25	0
2498.54	0
2498.84	0
2499.13	0
2499.43	0
2499.72	0
2500.01	0
2500.31	0
2500.6	0
2500.89	0
2501.19	0
2501.48	0
2501.77	0
2502.07	0
2502.36	0
2502.65	0
2502.95	0
2503.24	0
2503.53	0
2503.82	0
2504.12	0
2504.41	0
2504.7	0
2505	0
2505.29	0
2505.58	0
2505.88	0
2506.17	0
2506.46	0
2506.76	0
2507.05	0
2507.34	0
2507.63	0
2507.93	0
2508.22	0
2508.51	0
2508.8	0
2509.1	0
2509.39	0
2509.68	0
2509.98	0
2510.27	0
2510.56	0
2510.85	0
2511.15	0
2511.44	0
2511.73	0
2512.02	0
2512.32	0
2512.61	0
2512.9	0
2513.19	0
2513.49	0
2513.78	0
2514.07	0
2514.36	0
2514.65	0
2514.95	0
2515.24	0
2515.53	0
2515.82	0
2516.12	0
2516.41	0
2516.7	0
2516.99	0
2517.28	0
2517.58	0
2517.87	0
2518.16	0
2518.45	0
2518.74	0
2519.04	0
2519.33	0
2519.62	0
2519.91	0
2520.2	0
2520.5	0
2520.79	0
2521.08	0
2521.37	0
2521.66	0
2521.95	0
2522.25	0
2522.54	0
2522.83	0
2523.12	0
2523.41	0
2523.7	0
2523.99	0
2524.29	0
2524.58	0
2524.87	0
2525.16	0
2525.45	0
2525.74	0
2526.03	0
2526.33	0
2526.62	0
2526.91	0
2527.2	0
2527.49	0
2527.78	0
2528.07	0
2528.36	0
2528.66	0
2528.95	0
2529.24	0
2529.53	0
2529.82	0
2530.11	0
2530.4	0
2530.69	0
2530.98	0
2531.27	0
2531.57	0
2531.86	0
2532.15	0
2532.44	0
2532.73	0
2533.02	0
2533.31	0
2533.6	0
2533.89	0
2534.18	0
2534.47	0
2534.76	0
2535.05	0
2535.35	0
2535.64	0
2535.93	0
2536.22	0
2536.51	0
2536.8	0
2537.09	0
2537.38	0
2537.67	0
2537.96	0
2538.25	0
2538.54	0
2538.83	0
2539.12	0
2539.41	0
2539.7	0
2539.99	0
2540.28	0
2540.57	0
2540.86	0
2541.15	0
2541.44	0
2541.73	0
2542.02	0
2542.31	0
2542.6	0
2542.89	0
2543.18	0
2543.47	0
2543.76	0
2544.05	0
2544.34	0
2544.63	0
2544.92	0
2545.21	0
2545.5	0
2545.79	0
2546.08	0
2546.37	0
2546.66	0
2546.95	0
2547.24	0
2547.53	0
2547.82	0
2548.11	0
2548.4	0
2548.69	0
2548.98	0
2549.27	0
2549.55	0
2549.84	0
2550.13	0
2550.42	0
2550.71	0
2551	0
2551.29	0
2551.58	0
2551.87	0
2552.16	0
2552.45	0
2552.74	0
2553.03	0
2553.31	0
2553.6	0
2553.89	0
2554.18	0
2554.47	0
2554.76	0
2555.05	0
2555.34	0
2555.63	0
2555.92	0
2556.2	0
2556.49	0
2556.78	0
2557.07	0
2557.36	0
2557.65	0
2557.94	0
2558.23	0
2558.51	0
2558.8	0
2559.09	0
2559.38	0
2559.67	0
2559.96	0
2560.25	0
2560.53	0
2560.82	0
2561.11	0
2561.4	0
2561.69	0
2561.98	0
2562.27	0
2562.55	0
2562.84	0
2563.13	0
2563.42	0
2563.71	0
2564	0
2564.28	0
2564.57	0
2564.86	0
2565.15	0
2565.44	0
2565.72	0
2566.01	0
2566.3	0
2566.59	0
2566.88	0
2567.16	0
2567.45	0
2567.74	0
2568.03	0
2568.32	0
2568.6	0
2568.89	0
2569.18	0
2569.47	0
2569.75	0

