Source: Spectrum Viewer

Chart: Pulse Spectrum

Series: 
Wavelength (nm)	S (a.u.)
1179.9	0
1180.29	0
1180.68	0
1181.06	0
1181.45	0
1181.83	0
1182.22	0
1182.6	0
1182.99	0
1183.38	0
1183.76	0
1184.15	0
1184.53	0
1184.92	0
1185.3	0
1185.69	0
1186.07	0
1186.46	0
1186.85	0
1187.23	0
1187.62	0
1188	0
1188.39	0
1188.77	0
1189.16	0
1189.54	0
1189.93	0
1190.31	0
1190.7	0
1191.08	0
1191.47	0
1191.85	0
1192.24	0
1192.62	0
1193.01	0
1193.39	0
1193.78	0
1194.16	0
1194.55	0
1194.93	0
1195.32	0
1195.7	0
1196.09	0
1196.47	0
1196.86	0
1197.24	0
1197.63	0
1198.01	0
1198.4	0
1198.78	0
1199.16	0
1199.55	0
1199.93	0
1200.32	0
1200.7	0
1201.09	0
1201.47	0
1201.86	0
1202.24	0
1202.63	0
1203.01	0
1203.39	0
1203.78	0
1204.16	0
1204.55	0
1204.93	0
1205.32	0
1205.7	0
1206.08	0
1206.47	0
1206.85	0
1207.24	0
1207.62	0
1208	0
1208.39	0
1208.77	0
1209.16	0
1209.54	0
1209.92	0
1210.31	0
1210.69	0
1211.08	0
1211.46	0
1211.84	0
1212.23	0
1212.61	0
1213	0
1213.38	0
1213.76	0
1214.15	0
1214.53	0
1214.91	0
1215.3	0
1215.68	0
1216.06	0
1216.45	0
1216.83	0
1217.22	0
1217.6	0
1217.98	0
1218.37	0
1218.75	0
1219.13	0
1219.52	0
1219.9	0
1220.28	0
1220.67	0
1221.05	0
1221.43	0
1221.82	0
1222.2	0
1222.58	0
1222.97	0
1223.35	0
1223.73	0
1224.11	0
1224.5	0
1224.88	0
1225.26	0
1225.65	0
1226.03	0
1226.41	0
1226.8	0
1227.18	0
1227.56	0
1227.94	0
1228.33	0
1228.71	0
1229.09	0
1229.47	0
1229.86	0
1230.24	0
1230.62	0
1231.01	0
1231.39	0
1231.77	0
1232.15	0
1232.54	0
1232.92	0
1233.3	0
1233.68	0
1234.07	0
1234.45	0
1234.83	0
1235.21	0
1235.6	0
1235.98	0
1236.36	0
1236.74	0
1237.12	0
1237.51	0
1237.89	0
1238.27	0
1238.65	0
1239.04	0
1239.42	0
1239.8	0
1240.18	0
1240.56	0
1240.95	0
1241.33	0
1241.71	0
1242.09	0
1242.47	0
1242.86	0
1243.24	0
1243.62	0
1244	0
1244.38	0
1244.77	0
1245.15	0
1245.53	0
1245.91	0
1246.29	0
1246.67	0
1247.06	0
1247.44	0
1247.82	0
1248.2	0
1248.58	0
1248.96	0
1249.34	0
1249.73	0
1250.11	0
1250.49	0
1250.87	0
1251.25	0
1251.63	0
1252.01	0
1252.4	0
1252.78	0
1253.16	0
1253.54	0
1253.92	0
1254.3	0
1254.68	0
1255.06	0
1255.45	0
1255.83	0
1256.21	0
1256.59	0
1256.97	0
1257.35	0
1257.73	0
1258.11	0
1258.49	0
1258.87	0
1259.26	0
1259.64	0
1260.02	0
1260.4	0
1260.78	0
1261.16	0
1261.54	0
1261.92	0
1262.3	0
1262.68	0
1263.06	0
1263.44	0
1263.82	0
1264.21	0
1264.59	0
1264.97	0
1265.35	0
1265.73	0
1266.11	0
1266.49	0
1266.87	0
1267.25	0
1267.63	0
1268.01	0
1268.39	0
1268.77	0
1269.15	0
1269.53	0
1269.91	0
1270.29	0
1270.67	0
1271.05	0
1271.43	0
1271.81	0
1272.19	0
1272.57	0
1272.95	0
1273.33	0
1273.71	0
1274.09	0
1274.47	0
1274.85	0
1275.23	0
1275.61	0
1275.99	0
1276.37	0
1276.75	0
1277.13	0
1277.51	0
1277.89	0
1278.27	0
1278.65	0
1279.03	0
1279.41	0
1279.79	0
1280.17	0
1280.55	0
1280.93	0
1281.31	0
1281.69	0
1282.07	0
1282.45	0
1282.82	0
1283.2	0
1283.58	0
1283.96	0
1284.34	0
1284.72	0
1285.1	0
1285.48	0
1285.86	0
1286.24	0
1286.62	0
1287	0
1287.38	0
1287.75	0
1288.13	0
1288.51	0
1288.89	0
1289.27	0
1289.65	0
1290.03	0
1290.41	0
1290.79	0
1291.17	0
1291.54	0
1291.92	0
1292.3	0
1292.68	0
1293.06	0
1293.44	0
1293.82	0
1294.2	0
1294.57	0
1294.95	0
1295.33	0
1295.71	0
1296.09	0
1296.47	0
1296.85	0
1297.22	0
1297.6	0
1297.98	0
1298.36	0
1298.74	0
1299.12	0
1299.5	0
1299.87	0
1300.25	0
1300.63	0
1301.01	0
1301.39	0
1301.77	0
1302.14	0
1302.52	0
1302.9	0
1303.28	0
1303.66	0
1304.03	0
1304.41	0
1304.79	0
1305.17	0
1305.55	0
1305.92	0
1306.3	0
1306.68	0
1307.06	0
1307.44	0
1307.81	0
1308.19	0
1308.57	0
1308.95	0
1309.32	0
1309.7	0
1310.08	0
1310.46	0
1310.84	0
1311.21	0
1311.59	0
1311.97	0
1312.35	0
1312.72	0
1313.1	0
1313.48	0
1313.86	0
1314.23	0
1314.61	0
1314.99	0
1315.37	0
1315.74	0
1316.12	0
1316.5	0
1316.87	0
1317.25	0
1317.63	0
1318.01	0
1318.38	0
1318.76	0
1319.14	0
1319.52	0
1319.89	0
1320.27	0
1320.65	0
1321.02	0
1321.4	0
1321.78	0
1322.15	0
1322.53	0
1322.91	0
1323.29	0
1323.66	0
1324.04	0
1324.42	0
1324.79	0
1325.17	0
1325.55	0
1325.92	0
1326.3	0
1326.68	0
1327.05	0
1327.43	0
1327.81	0
1328.18	0
1328.56	0
1328.94	0
1329.31	0
1329.69	0
1330.06	0
1330.44	0
1330.82	0
1331.19	0
1331.57	0
1331.95	0
1332.32	0
1332.7	0
1333.08	0
1333.45	0
1333.83	0
1334.2	0
1334.58	0
1334.96	0
1335.33	0
1335.71	0
1336.08	0
1336.46	0
1336.84	0
1337.21	0
1337.59	0
1337.96	0
1338.34	0
1338.72	0
1339.09	0
1339.47	0
1339.84	0
1340.22	0
1340.6	0
1340.97	0
1341.35	0
1341.72	0
1342.1	0
1342.47	0
1342.85	0
1343.23	0
1343.6	0
1343.98	0
1344.35	0
1344.73	0
1345.1	0
1345.48	0
1345.85	0
1346.23	0
1346.61	0
1346.98	0
1347.36	0
1347.73	0
1348.11	0
1348.48	0
1348.86	0
1349.23	0
1349.61	0
1349.98	0
1350.36	0
1350.73	0
1351.11	0
1351.48	0
1351.86	0
1352.23	0
1352.61	0
1352.98	0
1353.36	0
1353.73	0
1354.11	0
1354.48	0
1354.86	0
1355.23	0
1355.61	0
1355.98	0
1356.36	0
1356.73	0
1357.11	0
1357.48	0
1357.86	0
1358.23	0
1358.61	0
1358.98	0
1359.35	0
1359.73	0
1360.1	0
1360.48	0
1360.85	0
1361.23	0
1361.6	0
1361.98	0
1362.35	0
1362.72	0
1363.1	0
1363.47	0
1363.85	0
1364.22	0
1364.6	0
1364.97	0
1365.34	0
1365.72	0
1366.09	0
1366.47	0
1366.84	0
1367.22	0
1367.59	0
1367.96	0
1368.34	0
1368.71	0
1369.09	0.24
1369.46	-0.76
1369.83	-0.64
1370.21	-0.64
1370.58	-0.64
1370.96	-0.88
1371.33	0.12
1371.7	0
1372.08	0
1372.45	0.16
1372.82	0.16
1373.2	0.16
1373.57	0.16
1373.95	0.16
1374.32	0
1374.69	0
1375.07	0
1375.44	0
1375.81	0
1376.19	0.32
1376.56	0.32
1376.93	0.32
1377.31	0.32
1377.68	0.64
1378.05	0.32
1378.43	0.32
1378.8	0.36
1379.17	0.36
1379.55	0.04
1379.92	0.04
1380.29	0.04
1380.67	0
1381.04	0
1381.41	0
1381.79	0.08
1382.16	0.08
1382.53	0.08
1382.91	-0.92
1383.28	-0.84
1383.65	-0.92
1384.03	-0.84
1384.4	-0.84
1384.77	0.16
1385.14	0.08
1385.52	0.08
1385.89	0
1386.26	0
1386.64	0
1387.01	0
1387.38	0.08
1387.75	0.08
1388.13	0.08
1388.5	0.08
1388.87	0.08
1389.25	0
1389.62	-0.2
1389.99	-0.4
1390.36	-0.4
1390.74	-0.4
1391.11	-0.4
1391.48	-0.16
1391.85	0.12
1392.23	0.12
1392.6	0.12
1392.97	0.12
1393.34	0.08
1393.72	0
1394.09	0.2
1394.46	0.2
1394.83	0.2
1395.21	0.2
1395.58	0.28
1395.95	0.08
1396.32	0.08
1396.69	0.08
1397.07	0.12
1397.44	0.04
1397.81	0.04
1398.18	0.04
1398.55	0.04
1398.93	0
1399.3	0
1399.67	0
1400.04	0
1400.41	0
1400.79	0.04
1401.16	0.12
1401.53	0.12
1401.9	0.32
1402.27	0.32
1402.65	0.28
1403.02	0.2
1403.39	0.2
1403.76	-0.4
1404.13	-0.4
1404.51	-0.4
1404.88	-0.4
1405.25	-0.4
1405.62	0
1405.99	0.08
1406.36	0.08
1406.74	0.08
1407.11	0.16
1407.48	0.16
1407.85	-1.12
1408.22	-1.12
1408.59	-1.12
1408.96	-1.2
1409.34	-1.2
1409.71	0
1410.08	0
1410.45	0
1410.82	0
1411.19	0
1411.56	0
1411.93	0
1412.31	0
1412.68	0.16
1413.05	0.16
1413.42	0.16
1413.79	0.2
1414.16	2.77556e-17
1414.53	1.44334e-17
1414.9	-0.2
1415.27	-0.2
1415.65	-0.24
1416.02	0.16
1416.39	0
1416.76	0.2
1417.13	0.2
1417.5	0.2
1417.87	0.12
1418.24	0.16
1418.61	0.16
1418.98	0.16
1419.35	0.16
1419.73	0.2
1420.1	0.16
1420.47	0.24
1420.84	0.44
1421.21	0.52
1421.58	0.36
1421.95	0.36
1422.32	0.28
1422.69	0.16
1423.06	0.2
1423.43	0.24
1423.8	0.28
1424.17	0.28
1424.54	0.2
1424.91	0.16
1425.28	0.12
1425.65	0.12
1426.02	0.12
1426.39	0.12
1426.76	-0.44
1427.14	-0.44
1427.51	-0.48
1427.88	-0.48
1428.25	-0.48
1428.62	0
1428.99	0
1429.36	0.28
1429.73	0.28
1430.1	0.28
1430.47	0.28
1430.84	0.28
1431.21	0
1431.58	0
1431.95	0
1432.32	-0.12
1432.69	-0.04
1433.06	-0.04
1433.43	-0.04
1433.8	-0.04
1434.17	0.08
1434.54	0
1434.91	0
1435.28	0
1435.64	0
1436.01	-0.6
1436.38	-0.6
1436.75	-0.32
1437.12	-0.2
1437.49	-0.2
1437.86	0.4
1438.23	0.4
1438.6	0.12
1438.97	0
1439.34	0.28
1439.71	0.28
1440.08	0.28
1440.45	0.28
1440.82	-0.32
1441.19	-0.52
1441.56	-0.52
1441.93	-0.24
1442.3	-0.08
1442.67	-1.08
1443.03	-1.08
1443.4	-1
1443.77	-1.28
1444.14	-1.2
1444.51	0.4
1444.88	0.32
1445.25	0.24
1445.62	0.24
1445.99	0
1446.36	0
1446.73	0
1447.09	0.08
1447.46	0.08
1447.83	0.08
1448.2	0.24
1448.57	0.04
1448.94	0.04
1449.31	0.04
1449.68	0.04
1450.05	-0.12
1450.41	0.16
1450.78	-0.32
1451.15	-0.32
1451.52	-0.32
1451.89	-0.2
1452.26	-0.28
1452.63	0.2
1453	0.2
1453.36	0.2
1453.73	0.08
1454.1	0.08
1454.47	0
1454.84	0
1455.21	0
1455.57	-0.4
1455.94	-0.4
1456.31	-0.4
1456.68	-0.4
1457.05	-0.32
1457.42	0.32
1457.78	0.32
1458.15	0.32
1458.52	0.32
1458.89	0.24
1459.26	0
1459.63	0
1459.99	0
1460.36	0.08
1460.73	0.08
1461.1	0.08
1461.47	0.08
1461.83	0.08
1462.2	0
1462.57	0
1462.94	0.2
1463.31	0.2
1463.67	0.2
1464.04	0
1464.41	0
1464.78	-0.8
1465.15	-0.8
1465.51	-0.8
1465.88	-0.6
1466.25	-0.6
1466.62	0
1466.98	0.04
1467.35	0.04
1467.72	0.08
1468.09	0.08
1468.46	0.08
1468.82	0.04
1469.19	0.04
1469.56	0
1469.93	0
1470.29	0.12
1470.66	0.12
1471.03	0.12
1471.4	0.12
1471.76	0.16
1472.13	0.04
1472.5	0.04
1472.86	0.04
1473.23	0.04
1473.6	0
1473.97	0
1474.33	0
1474.7	0
1475.07	0.12
1475.44	0.12
1475.8	0.08
1476.17	0.08
1476.54	0.08
1476.9	-0.04
1477.27	-0.04
1477.64	0
1478	0
1478.37	0
1478.74	0
1479.11	0
1479.47	0
1479.84	0.16
1480.21	0.6
1480.57	0.72
1480.94	0.72
1481.31	0.96
1481.67	0.8
1482.04	0.36
1482.41	0.24
1482.77	0.24
1483.14	0
1483.51	0
1483.87	0.12
1484.24	0.12
1484.61	0.12
1484.97	0.24
1485.34	0.4
1485.71	-0.56
1486.07	-0.56
1486.44	-0.56
1486.81	-0.6
1487.17	-0.76
1487.54	0.08
1487.9	0.08
1488.27	0.24
1488.64	-0.04
1489	-0.04
1489.37	-0.04
1489.74	-0.04
1490.1	-0.04
1490.47	0.16
1490.83	0.16
1491.2	0.16
1491.57	0.2
1491.93	0.04
1492.3	0.04
1492.66	0.32
1493.03	0.4
1493.4	0.36
1493.76	0.36
1494.13	0.36
1494.49	0.08
1494.86	0.16
1495.23	0.36
1495.59	0.36
1495.96	-0.96
1496.32	-0.96
1496.69	-1.12
1497.06	-1.28
1497.42	-2.08
1497.79	-0.76
1498.15	-0.76
1498.52	-0.76
1498.88	-0.8
1499.25	0
1499.62	-0.4
1499.98	-0.4
1500.35	-0.4
1500.71	-0.4
1501.08	-0.4
1501.44	0
1501.81	0.08
1502.17	0.08
1502.54	0.08
1502.9	0.12
1503.27	0.12
1503.64	0.04
1504	0.16
1504.37	0.16
1504.73	0.12
1505.1	0.12
1505.46	0.12
1505.83	0
1506.19	0
1506.56	0.04
1506.92	0.04
1507.29	0.04
1507.65	0.36
1508.02	0.4
1508.38	0.36
1508.75	0.6
1509.11	0.6
1509.48	0.28
1509.84	0.28
1510.21	0.28
1510.57	0.04
1510.94	0.04
1511.3	0.04
1511.67	0
1512.03	0
1512.4	0
1512.76	0.04
1513.13	-0.92
1513.49	-1.12
1513.85	-1.12
1514.22	-1.12
1514.58	-1.16
1514.95	-0.2
1515.31	0
1515.68	0
1516.04	0.2
1516.41	0.24
1516.77	0.24
1517.14	0.24
1517.5	0.48
1517.86	0.28
1518.23	0.32
1518.59	0.32
1518.96	0.32
1519.32	0.08
1519.69	0.12
1520.05	0.04
1520.41	0.04
1520.78	0.04
1521.14	0.04
1521.51	0.16
1521.87	0.24
1522.24	0.24
1522.6	0.24
1522.96	0.28
1523.33	0.12
1523.69	0.04
1524.06	0.2
1524.42	0.2
1524.78	0.2
1525.15	0.2
1525.51	0.2
1525.88	0.12
1526.24	0.12
1526.6	0.08
1526.97	0.16
1527.33	0.16
1527.69	0.08
1528.06	0.08
1528.42	0.08
1528.79	0.2
1529.15	-0.6
1529.51	-0.6
1529.88	-0.6
1530.24	-0.56
1530.6	-0.56
1530.97	0.24
1531.33	0.24
1531.69	0.32
1532.06	0.28
1532.42	0.08
1532.78	0.08
1533.15	0.08
1533.51	0
1533.87	0
1534.24	0.04
1534.6	0.04
1534.96	0.04
1535.33	0.04
1535.69	0.04
1536.05	0.12
1536.42	0.32
1536.78	0.4
1537.14	0.4
1537.51	0.4
1537.87	0.28
1538.23	0.08
1538.6	0
1538.96	0
1539.32	0
1539.68	0
1540.05	0
1540.41	0.04
1540.77	0.08
1541.14	0.28
1541.5	0.28
1541.86	0.28
1542.23	0.24
1542.59	0.24
1542.95	0.12
1543.31	0.12
1543.68	0.12
1544.04	0.12
1544.4	0.08
1544.76	0.16
1545.13	0.16
1545.49	0.24
1545.85	0.32
1546.21	0.32
1546.58	0.16
1546.94	0.16
1547.3	0.16
1547.66	0.24
1548.03	0.28
1548.39	0.28
1548.75	0.28
1549.11	0.2
1549.48	0.04
1549.84	0.08
1550.2	0.08
1550.56	0.36
1550.93	0.36
1551.29	0.36
1551.65	0.52
1552.01	0.52
1552.37	0.28
1552.74	0.28
1553.1	0.44
1553.46	0.2
1553.82	0.2
1554.18	0.16
1554.55	0.16
1554.91	0
1555.27	0.32
1555.63	0.32
1555.99	0.4
1556.36	0.44
1556.72	-0.92
1557.08	-0.96
1557.44	-0.96
1557.8	-1.04
1558.17	-1.08
1558.53	0.28
1558.89	0
1559.25	0.4
1559.61	0.52
1559.97	0.68
1560.34	0.68
1560.7	0.76
1561.06	0.36
1561.42	0.24
1561.78	0.08
1562.14	-0.32
1562.5	-0.32
1562.87	-0.32
1563.23	-0.32
1563.59	-0.72
1563.95	-0.32
1564.31	-0.16
1564.67	-0.16
1565.03	-0.16
1565.4	0.24
1565.76	0.24
1566.12	0.16
1566.48	0.48
1566.84	0.72
1567.2	0.72
1567.56	0.56
1567.92	0.4
1568.29	0.28
1568.65	0.04
1569.01	0.08
1569.37	-0.16
1569.73	-0.04
1570.09	-0.16
1570.45	-0.16
1570.81	-0.2
1571.17	0.2
1571.53	0.16
1571.89	0.08
1572.26	0.56
1572.62	0.64
1572.98	0.72
1573.34	0.64
1573.7	0.64
1574.06	0.28
1574.42	0.2
1574.78	-0.04
1575.14	-0.04
1575.5	-0.04
1575.86	-0.96
1576.22	-0.96
1576.58	-0.72
1576.94	-0.68
1577.3	-0.68
1577.67	0.12
1578.03	0.28
1578.39	0.24
1578.75	0.36
1579.11	0.4
1579.47	0.48
1579.83	0.36
1580.19	0.36
1580.55	0.2
1580.91	0.2
1581.27	0.12
1581.63	0.08
1581.99	0.04
1582.35	0.44
1582.71	0.4
1583.07	0.4
1583.43	0.4
1583.79	0.4
1584.15	0.12
1584.51	0.4
1584.87	0.48
1585.23	0.6
1585.59	0.88
1585.95	1
1586.31	0.72
1586.67	0.64
1587.03	1.08
1587.39	0.88
1587.75	0.72
1588.11	0.72
1588.47	0.72
1588.83	0.16
1589.19	0.08
1589.55	0.16
1589.91	0.16
1590.27	0.52
1590.63	0.76
1590.99	0.76
1591.35	0.64
1591.71	0.96
1592.07	0.6
1592.42	0.36
1592.78	0.48
1593.14	0.44
1593.5	0.12
1593.86	0.16
1594.22	0.16
1594.58	0.08
1594.94	0.32
1595.3	0.32
1595.66	0.32
1596.02	0.32
1596.38	0.32
1596.74	0.2
1597.1	0.2
1597.46	0.4
1597.81	0.96
1598.17	0.92
1598.53	0.8
1598.89	0.8
1599.25	0.56
1599.61	0
1599.97	0.08
1600.33	0.08
1600.69	0.08
1601.05	0.08
1601.4	0.24
1601.76	-0.24
1602.12	0.08
1602.48	0.12
1602.84	0.12
1603.2	-0.04
1603.56	0.36
1603.92	0.04
1604.28	0
1604.63	0
1604.99	0
1605.35	0
1605.71	0.2
1606.07	0.2
1606.43	0.28
1606.79	0.52
1607.14	0.52
1607.5	0.4
1607.86	0.48
1608.22	0.4
1608.58	0.16
1608.94	0.16
1609.29	0.2
1609.65	-0.08
1610.01	-0.08
1610.37	-0.08
1610.73	0.2
1611.09	0.08
1611.44	0.28
1611.8	0.28
1612.16	0.28
1612.52	0
1612.88	0
1613.24	0
1613.59	0.12
1613.95	0.12
1614.31	0.12
1614.67	0.32
1615.03	0.36
1615.38	0.32
1615.74	0.32
1616.1	0.32
1616.46	0.12
1616.82	0.28
1617.17	0.32
1617.53	0.32
1617.89	0.52
1618.25	0.64
1618.6	0.44
1618.96	0.32
1619.32	0.32
1619.68	0.12
1620.04	0
1620.39	-0.2
1620.75	-0.12
1621.11	0.24
1621.47	0.24
1621.82	0.36
1622.18	0.56
1622.54	0.52
1622.9	0.16
1623.25	-0.8
1623.61	-0.84
1623.97	-0.8
1624.33	-0.76
1624.68	-0.96
1625.04	2.77556e-17
1625.4	-0.08
1625.75	-0.72
1626.11	-0.72
1626.47	-0.52
1626.83	-0.44
1627.18	-0.44
1627.54	0.24
1627.9	0.16
1628.26	0.16
1628.61	0.08
1628.97	0.24
1629.33	0.16
1629.68	0.28
1630.04	0.4
1630.4	-0.2
1630.75	-0.36
1631.11	-0.36
1631.47	-0.68
1631.83	-0.8
1632.18	-0.08
1632.54	-0.08
1632.9	-6.66107e-18
1633.25	0.2
1633.61	0.2
1633.97	0.36
1634.32	0.36
1634.68	0.44
1635.04	0.44
1635.39	0.44
1635.75	0.16
1636.11	0.16
1636.46	0
1636.82	0
1637.18	0
1637.53	0
1637.89	0
1638.25	0
1638.6	0.04
1638.96	0.04
1639.31	0.04
1639.67	0.04
1640.03	0.04
1640.38	0.04
1640.74	0.16
1641.1	0.16
1641.45	0.16
1641.81	0.16
1642.16	0.12
1642.52	0
1642.88	0.16
1643.23	-0.4
1643.59	-0.24
1643.95	-0.24
1644.3	-0.24
1644.66	-0.4
1645.01	0.16
1645.37	0
1645.73	0
1646.08	0
1646.44	0
1646.79	-0.56
1647.15	-0.56
1647.51	-0.56
1647.86	-0.56
1648.22	-0.56
1648.57	-0.8
1648.93	-0.8
1649.28	-0.72
1649.64	-0.72
1650	-0.72
1650.35	0.08
1650.71	0.08
1651.06	0
1651.42	0.32
1651.77	0.2
1652.13	0.2
1652.48	0.32
1652.84	0.32
1653.2	6.66107e-18
1653.55	0.12
1653.91	0.12
1654.26	0
1654.62	0.52
1654.97	0.72
1655.33	0.84
1655.68	0.84
1656.04	0.84
1656.39	0.32
1656.75	0.24
1657.1	0.2
1657.46	0.44
1657.81	0.44
1658.17	0.56
1658.52	0.44
1658.88	0.36
1659.23	0.2
1659.59	0.32
1659.94	0.24
1660.3	0.52
1660.65	0.52
1661.01	0.44
1661.36	0.64
1661.72	0.6
1662.07	0.32
1662.43	0.52
1662.78	0.72
1663.14	0.4
1663.49	0.44
1663.85	0.44
1664.2	0.52
1664.56	0.32
1664.91	-1.48
1665.27	-1.52
1665.62	-1.08
1665.98	-1.36
1666.33	-1.28
1666.69	0.56
1667.04	0.56
1667.39	0.12
1667.75	0.16
1668.1	0.36
1668.46	0.68
1668.81	0.88
1669.17	0.88
1669.52	0.84
1669.88	0.68
1670.23	0.32
1670.58	0.32
1670.94	0.92
1671.29	1
1671.65	1.4
1672	1.4
1672.36	1.2
1672.71	0.64
1673.06	0.56
1673.42	0.16
1673.77	0.16
1674.13	0.56
1674.48	0.68
1674.83	0.92
1675.19	1.52
1675.54	1.64
1675.9	1.36
1676.25	1.28
1676.6	1.04
1676.96	0.36
1677.31	0.36
1677.67	0.52
1678.02	0.6
1678.37	0.6
1678.73	0.56
1679.08	0.68
1679.43	0.92
1679.79	1
1680.14	1.08
1680.5	0.68
1680.85	0.56
1681.2	0.2
1681.56	0.08
1681.91	-7.21672e-18
1682.26	0.4
1682.62	0.88
1682.97	1.16
1683.32	1.08
1683.68	1.36
1684.03	1.36
1684.38	1.04
1684.74	0.68
1685.09	0.64
1685.44	0.16
1685.8	0.2
1686.15	0.04
1686.5	0.08
1686.86	0.4
1687.21	0.64
1687.56	0.6
1687.92	0.68
1688.27	1.08
1688.62	0.8
1688.98	0.84
1689.33	0.92
1689.68	0.72
1690.03	0.24
1690.39	0.32
1690.74	0.52
1691.09	0.56
1691.45	0.4
1691.8	0.52
1692.15	0.48
1692.5	0.2
1692.86	0.32
1693.21	0.52
1693.56	0.52
1693.92	0.64
1694.27	0.08
1694.62	4.2189e-17
1694.97	0.08
1695.33	-0.08
1695.68	-0.12
1696.03	0.72
1696.38	0.72
1696.74	0.84
1697.09	0.68
1697.44	0.8
1697.79	0.56
1698.15	0.88
1698.5	0.64
1698.85	0.8
1699.2	-0.28
1699.56	-0.32
1699.91	-0.64
1700.26	-0.64
1700.61	-0.64
1700.97	0.16
1701.32	0.16
1701.67	0
1702.02	0.28
1702.37	0.6
1702.73	0.84
1703.08	0.84
1703.43	1
1703.78	1
1704.13	0.96
1704.49	0.72
1704.84	0.76
1705.19	0.68
1705.54	0.44
1705.89	0.16
1706.25	0.16
1706.6	0.2
1706.95	0.36
1707.3	0.48
1707.65	0.92
1708.01	1.04
1708.36	1.16
1708.71	1.32
1709.06	1.2
1709.41	1.2
1709.76	1.44
1710.12	1.8
1710.47	1.56
1710.82	2.36
1711.17	1.92
1711.52	2.04
1711.87	1.72
1712.23	1.72
1712.58	1.4
1712.93	1.56
1713.28	2
1713.63	1.8
1713.98	1.72
1714.33	1.24
1714.69	1.36
1715.04	0.44
1715.39	0.44
1715.74	0.88
1716.09	1.4
1716.44	1.36
1716.79	1.56
1717.14	1.76
1717.5	1.6
1717.85	1.08
1718.2	1.08
1718.55	1.28
1718.9	1.28
1719.25	1
1719.6	1.04
1719.95	1.44
1720.3	1.32
1720.65	1.52
1721.01	1.88
1721.36	2.04
1721.71	1.64
1722.06	1.24
1722.41	1.2
1722.76	1
1723.11	1.16
1723.46	1.12
1723.81	2.16
1724.16	2.04
1724.51	1.84
1724.86	1.68
1725.21	1.56
1725.56	0.84
1725.92	0.6
1726.27	0.68
1726.62	0.72
1726.97	0.88
1727.32	0.48
1727.67	0.52
1728.02	1.2
1728.37	1.12
1728.72	1.28
1729.07	1.72
1729.42	1.8
1729.77	1.36
1730.12	1.32
1730.47	1.04
1730.82	1.56
1731.17	1.4
1731.52	1.32
1731.87	1.36
1732.22	1.32
1732.57	0.56
1732.92	0.56
1733.27	0.56
1733.62	0.72
1733.97	0.72
1734.32	0.72
1734.67	0.72
1735.02	0.04
1735.37	-0.32
1735.72	-0.2
1736.07	-0.12
1736.42	0.04
1736.77	0.44
1737.12	0.48
1737.47	0.28
1737.82	0.32
1738.17	0.2
1738.52	0.2
1738.87	0.48
1739.22	0.52
1739.57	0.52
1739.92	0.48
1740.27	0.48
1740.62	0.28
1740.97	0.32
1741.32	0.28
1741.67	0.28
1742.02	0.28
1742.37	0.28
1742.72	0.36
1743.06	0.28
1743.41	0.28
1743.76	0.32
1744.11	-1
1744.46	-1.16
1744.81	-1.08
1745.16	-1.08
1745.51	-1.08
1745.86	0.12
1746.21	0.36
1746.56	0.28
1746.91	0.28
1747.26	0.24
1747.6	0.24
1747.95	0
1748.3	0.04
1748.65	0.04
1749	0.04
1749.35	0.04
1749.7	0.04
1750.05	0
1750.4	0.28
1750.75	0.28
1751.09	0.32
1751.44	0.32
1751.79	-0.28
1752.14	-0.56
1752.49	-0.56
1752.84	-0.6
1753.19	-0.6
1753.54	0.08
1753.88	0.44
1754.23	0.56
1754.58	0.56
1754.93	1.24
1755.28	1.16
1755.63	0.8
1755.98	1.48
1756.32	1.56
1756.67	1
1757.02	1
1757.37	1
1757.72	0.52
1758.07	0.44
1758.42	0.68
1758.76	1.32
1759.11	1
1759.46	0.68
1759.81	1.64
1760.16	1.4
1760.5	1.6
1760.85	1.8
1761.2	2.04
1761.55	3.2
1761.9	3.12
1762.25	2.28
1762.59	3.52
1762.94	3.56
1763.29	2.32
1763.64	2.52
1763.99	3.4
1764.33	3.44
1764.68	3.76
1765.03	3.6
1765.38	6.24
1765.73	5.84
1766.07	6.6
1766.42	9.76
1766.77	10.04
1767.12	9.16
1767.46	10.64
1767.81	11.32
1768.16	11.64
1768.51	12.48
1768.85	13.68
1769.2	14.48
1769.55	13.92
1769.9	13.24
1770.25	15.32
1770.59	16.08
1770.94	17.24
1771.29	19.64
1771.64	19.16
1771.98	18.68
1772.33	19.56
1772.68	20.64
1773.02	21
1773.37	25.64
1773.72	27.04
1774.07	28.72
1774.41	31.56
1774.76	32.8
1775.11	33.24
1775.46	33.76
1775.8	32.8
1776.15	32.52
1776.5	33.72
1776.84	33.96
1777.19	39.16
1777.54	40.64
1777.89	45.08
1778.23	48.28
1778.58	48.16
1778.93	49.48
1779.27	51.92
1779.62	50.04
1779.97	48.44
1780.31	49.16
1780.66	47.56
1781.01	48.6
1781.35	50.6
1781.7	56.64
1782.05	59.28
1782.39	59.36
1782.74	60.08
1783.09	59.92
1783.43	58
1783.78	59.52
1784.13	62.84
1784.47	63.88
1784.82	63.16
1785.17	60.08
1785.51	59
1785.86	60.88
1786.21	65.48
1786.55	70.4
1786.9	78.72
1787.25	83.84
1787.59	85.24
1787.94	83.24
1788.29	81.08
1788.63	78.16
1788.98	79
1789.32	80.4
1789.67	79.08
1790.02	78.2
1790.36	80.36
1790.71	87.84
1791.06	93.12
1791.4	101.16
1791.75	112.52
1792.09	124.24
1792.44	128.44
1792.79	130.6
1793.13	137.16
1793.48	137.72
1793.82	135.32
1794.17	128.16
1794.52	122
1794.86	117.64
1795.21	108.68
1795.55	90.28
1795.9	83.32
1796.24	99.56
1796.59	118.84
1796.94	135.92
1797.28	152.72
1797.63	166.64
1797.97	154.68
1798.32	133.36
1798.66	140.52
1799.01	141.84
1799.36	133.72
1799.7	139.8
1800.05	143.32
1800.39	127.16
1800.74	144.28
1801.08	167.48
1801.43	179.2
1801.77	179.6
1802.12	187.8
1802.46	180.76
1802.81	166.16
1803.15	153.6
1803.5	151.84
1803.85	136.68
1804.19	123.72
1804.54	124.44
1804.88	120.2
1805.23	124.12
1805.57	151.24
1805.92	175.76
1806.26	178.56
1806.61	180.28
1806.95	195.36
1807.3	200.56
1807.64	201.48
1807.99	207.32
1808.33	206.4
1808.68	189.2
1809.02	190.52
1809.37	198.04
1809.71	207.48
1810.06	216.2
1810.4	215.72
1810.75	196.76
1811.09	196.96
1811.43	213.28
1811.78	246.48
1812.12	278.2
1812.47	294.44
1812.81	285.72
1813.16	264.88
1813.5	240.48
1813.85	227.48
1814.19	214.56
1814.54	198.24
1814.88	185.16
1815.23	164
1815.57	133.6
1815.91	112.68
1816.26	121.48
1816.6	149.6
1816.95	169.16
1817.29	193.6
1817.64	231.04
1817.98	260.36
1818.32	259.04
1818.67	267.68
1819.01	283.44
1819.36	269.48
1819.7	239.16
1820.05	228.88
1820.39	220.84
1820.73	207.12
1821.08	215.44
1821.42	210.44
1821.77	189.12
1822.11	172.68
1822.45	162.04
1822.8	146.36
1823.14	133.32
1823.49	147.4
1823.83	187.08
1824.17	218.16
1824.52	236.68
1824.86	255.92
1825.2	256.12
1825.55	224
1825.89	183
1826.24	172.44
1826.58	193.2
1826.92	198.6
1827.27	208.08
1827.61	228.36
1827.95	221.84
1828.3	192.88
1828.64	171.04
1828.98	143.32
1829.33	135.04
1829.67	162.92
1830.02	175.16
1830.36	194.84
1830.7	230.68
1831.05	240.24
1831.39	222.96
1831.73	212.16
1832.08	197.16
1832.42	179.56
1832.76	167.76
1833.1	150.92
1833.45	142.36
1833.79	137.84
1834.13	131.28
1834.48	132.68
1834.82	135.12
1835.16	130.84
1835.51	133.28
1835.85	124.36
1836.19	108.12
1836.54	95.56
1836.88	86.76
1837.22	68.68
1837.56	69.72
1837.91	81.08
1838.25	96.2
1838.59	117.76
1838.94	130.8
1839.28	125.12
1839.62	121.8
1839.96	115.4
1840.31	90.56
1840.65	75.92
1840.99	88.88
1841.34	111.2
1841.68	122.84
1842.02	145.32
1842.36	158.52
1842.71	143.08
1843.05	113.32
1843.39	111.72
1843.73	119.04
1844.08	135.24
1844.42	161.6
1844.76	175.16
1845.1	163.36
1845.45	144.32
1845.79	130.96
1846.13	119.28
1846.47	110.6
1846.81	101.96
1847.16	101.96
1847.5	108.64
1847.84	113.12
1848.18	119.4
1848.53	128.16
1848.87	127.04
1849.21	115.12
1849.55	101.4
1849.89	89.72
1850.24	80.24
1850.58	74.8
1850.92	69.8
1851.26	64.56
1851.6	65.36
1851.95	63.48
1852.29	59.32
1852.63	56.76
1852.97	53.52
1853.31	43.52
1853.66	41.24
1854	44.12
1854.34	45.36
1854.68	56.48
1855.02	60.52
1855.36	59.08
1855.71	54.96
1856.05	49.2
1856.39	36.64
1856.73	33.16
1857.07	28.72
1857.41	28
1857.76	27.08
1858.1	24.44
1858.44	22.8
1858.78	24
1859.12	20
1859.46	17.16
1859.8	14.84
1860.15	13.84
1860.49	28.56
1860.83	35.6
1861.17	37.16
1861.51	39.8
1861.85	38.84
1862.19	22.72
1862.53	19.72
1862.88	19.08
1863.22	16.88
1863.56	17.64
1863.9	16.64
1864.24	12.48
1864.58	11.8
1864.92	11.48
1865.26	8.84
1865.6	8.72
1865.94	6.68
1866.29	5.24
1866.63	4.68
1866.97	4.64
1867.31	4.6
1867.65	6.92
1867.99	7.56
1868.33	8.56
1868.67	10.76
1869.01	14.8
1869.35	23.44
1869.69	29.28
1870.03	33.32
1870.37	35.8
1870.72	32.2
1871.06	22.84
1871.4	17.08
1871.74	12.6
1872.08	13.44
1872.42	20.84
1872.76	23.4
1873.1	24.16
1873.44	24.36
1873.78	19.44
1874.12	13.92
1874.46	16.28
1874.8	21.96
1875.14	25.44
1875.48	28.52
1875.82	31.08
1876.16	28.44
1876.5	25.4
1876.84	23
1877.18	21.76
1877.52	16.2
1877.86	13.24
1878.2	11.48
1878.54	9.64
1878.88	10.16
1879.22	13.36
1879.56	14.24
1879.9	15.36
1880.24	18.28
1880.58	21.08
1880.92	21.52
1881.26	23.96
1881.6	23.4
1881.94	23.12
1882.28	25.2
1882.62	30.04
1882.96	31.48
1883.3	33
1883.64	35.28
1883.98	31.6
1884.32	27.16
1884.66	26.28
1885	26.08
1885.34	25.76
1885.68	29.8
1886.02	30.04
1886.36	28.68
1886.7	28.28
1887.04	29.36
1887.38	26.68
1887.72	28.92
1888.06	33.16
1888.39	35.2
1888.73	40.12
1889.07	49.36
1889.41	51
1889.75	52.08
1890.09	58.16
1890.43	55.32
1890.77	44
1891.11	42.16
1891.45	38.64
1891.79	31
1892.13	31.2
1892.47	37.16
1892.8	37.72
1893.14	41.52
1893.48	47.84
1893.82	49.32
1894.16	47.24
1894.5	49.8
1894.84	50.4
1895.18	47.12
1895.52	48
1895.86	50.96
1896.19	50.56
1896.53	50.2
1896.87	54.2
1897.21	53.4
1897.55	53.68
1897.89	58.24
1898.23	61.64
1898.57	57.52
1898.9	58.68
1899.24	59.4
1899.58	55.88
1899.92	55.16
1900.26	58.48
1900.6	57.76
1900.94	57.56
1901.27	59.8
1901.61	59.24
1901.95	60.52
1902.29	63.08
1902.63	64.76
1902.97	63.8
1903.3	65.6
1903.64	68
1903.98	66.88
1904.32	67.12
1904.66	67.4
1905	67.04
1905.33	64.36
1905.67	64.68
1906.01	66.36
1906.35	67.36
1906.69	67.28
1907.02	68.96
1907.36	70.48
1907.7	69.4
1908.04	68.48
1908.38	70.08
1908.71	70.44
1909.05	70.88
1909.39	71.6
1909.73	74.2
1910.07	71.72
1910.4	71.56
1910.74	71.52
1911.08	72.36
1911.42	72.12
1911.76	74.76
1912.09	75.44
1912.43	76.32
1912.77	76
1913.11	76.8
1913.44	76.12
1913.78	77.88
1914.12	78
1914.46	77.8
1914.79	76.76
1915.13	76.96
1915.47	74.72
1915.81	74.04
1916.14	75.04
1916.48	76.24
1916.82	76.88
1917.16	77.4
1917.49	76.88
1917.83	75.96
1918.17	75
1918.5	75.72
1918.84	76.12
1919.18	76.36
1919.52	77.36
1919.85	76.64
1920.19	75.84
1920.53	75.16
1920.87	75.6
1921.2	74.84
1921.54	76.8
1921.88	77.52
1922.21	78.48
1922.55	77.8
1922.89	78.56
1923.22	76.8
1923.56	75.88
1923.9	76.88
1924.23	76.36
1924.57	76.64
1924.91	78.16
1925.25	78.28
1925.58	78.48
1925.92	81.32
1926.26	81.4
1926.59	79.92
1926.93	81.08
1927.27	79.2
1927.6	76.88
1927.94	75.36
1928.28	77.12
1928.61	75.6
1928.95	76.36
1929.29	77.32
1929.62	77.68
1929.96	76.72
1930.29	78
1930.63	77.16
1930.97	76.64
1931.3	79.24
1931.64	80.24
1931.98	78.08
1932.31	78.12
1932.65	79.92
1932.99	78.36
1933.32	77.96
1933.66	79.52
1933.99	80.24
1934.33	80.72
1934.67	81
1935	80.52
1935.34	81.2
1935.67	81.44
1936.01	81.6
1936.35	81.4
1936.68	83.16
1937.02	82.6
1937.35	82.32
1937.69	82.24
1938.03	82.08
1938.36	78.76
1938.7	80.4
1939.03	79.92
1939.37	78.48
1939.7	78.44
1940.04	80.96
1940.38	80.28
1940.71	81.92
1941.05	83.08
1941.38	83.28
1941.72	83.84
1942.05	84.6
1942.39	84.16
1942.73	83.96
1943.06	85.28
1943.4	83.96
1943.73	81.6
1944.07	84.28
1944.4	82.72
1944.74	80.48
1945.07	81.2
1945.41	81.84
1945.74	78.4
1946.08	81.8
1946.42	82.2
1946.75	81.84
1947.09	82.48
1947.42	83.96
1947.76	82.48
1948.09	83.96
1948.43	85.36
1948.76	86.92
1949.1	85.28
1949.43	85.08
1949.77	84.68
1950.1	83.96
1950.44	80.48
1950.77	83.24
1951.11	83.24
1951.44	83
1951.78	83.16
1952.11	85.28
1952.45	82.4
1952.78	82.72
1953.12	83.6
1953.45	83.24
1953.79	82.48
1954.12	86.48
1954.46	86.64
1954.79	85.56
1955.12	85.68
1955.46	87.28
1955.79	83.72
1956.13	82.16
1956.46	82.12
1956.8	81.04
1957.13	80.12
1957.47	81.04
1957.8	82.76
1958.14	82.04
1958.47	82
1958.8	82.32
1959.14	82
1959.47	79.56
1959.81	81.04
1960.14	83
1960.48	82.36
1960.81	81.08
1961.14	82.64
1961.48	81.04
1961.81	78.88
1962.15	77.28
1962.48	78.52
1962.82	76.28
1963.15	75.4
1963.48	74.52
1963.82	75
1964.15	73.16
1964.49	73.32
1964.82	74.56
1965.15	74.88
1965.49	73.64
1965.82	74.52
1966.16	74.44
1966.49	73.32
1966.82	73.24
1967.16	73.32
1967.49	72.64
1967.83	72.04
1968.16	71.52
1968.49	69.96
1968.83	69.92
1969.16	67.2
1969.49	67.44
1969.83	66.16
1970.16	65.28
1970.49	63.32
1970.83	63.4
1971.16	60.96
1971.5	58.12
1971.83	57.6
1972.16	57
1972.5	56.4
1972.83	54.92
1973.16	55.64
1973.5	54.52
1973.83	54.04
1974.16	52.52
1974.5	52.84
1974.83	53.32
1975.16	54.4
1975.5	54.08
1975.83	54.56
1976.16	53.88
1976.49	51.32
1976.83	50.2
1977.16	49.36
1977.49	48.32
1977.83	47.2
1978.16	46.56
1978.49	44.12
1978.83	43.04
1979.16	41.68
1979.49	42.4
1979.83	42.92
1980.16	41.36
1980.49	39.88
1980.82	39.36
1981.16	37.92
1981.49	36.76
1981.82	36.8
1982.15	36.76
1982.49	35.56
1982.82	33.96
1983.15	33
1983.49	32.68
1983.82	31.96
1984.15	30.52
1984.48	29.92
1984.82	29.28
1985.15	28.6
1985.48	27.2
1985.81	27.44
1986.15	25.96
1986.48	24.96
1986.81	24.24
1987.14	23.16
1987.48	22.88
1987.81	22.64
1988.14	21.16
1988.47	20.6
1988.81	19.72
1989.14	18.44
1989.47	17.84
1989.8	19.96
1990.13	18.6
1990.47	18.4
1990.8	18.36
1991.13	18.84
1991.46	15.04
1991.79	13.68
1992.13	12.24
1992.46	10.64
1992.79	9.44
1993.12	9.84
1993.45	9.4
1993.79	10.24
1994.12	10.04
1994.45	9.04
1994.78	9.36
1995.11	10.44
1995.45	10
1995.78	10.48
1996.11	10.64
1996.44	9.36
1996.77	8.84
1997.1	7.76
1997.44	7.68
1997.77	7.24
1998.1	7.84
1998.43	7.88
1998.76	7.8
1999.09	7.96
1999.43	6.24
1999.76	5.6
2000.09	5.52
2000.42	6.32
2000.75	4.2
2001.08	5.12
2001.41	4.52
2001.75	4.12
2002.08	3.44
2002.41	4.2
2002.74	4.44
2003.07	5.2
2003.4	5.24
2003.73	5.6
2004.06	5.32
2004.4	6.16
2004.73	5.24
2005.06	4.68
2005.39	5.16
2005.72	5.32
2006.05	4.68
2006.38	5.16
2006.71	5.04
2007.04	4.52
2007.37	4.48
2007.71	4.52
2008.04	4.12
2008.37	4.76
2008.7	5.32
2009.03	6.04
2009.36	6.48
2009.69	6.96
2010.02	7.16
2010.35	7.08
2010.68	6.68
2011.01	6.68
2011.34	6.32
2011.67	6.4
2012.01	5.04
2012.34	5.36
2012.67	4.88
2013	4.72
2013.33	4.56
2013.66	5.16
2013.99	4.92
2014.32	4.72
2014.65	4.88
2014.98	5.32
2015.31	5.04
2015.64	5.04
2015.97	5.24
2016.3	5.8
2016.63	4.44
2016.96	5.52
2017.29	4.4
2017.62	4.6
2017.95	4.8
2018.28	5.56
2018.61	4.84
2018.94	5.8
2019.27	5.48
2019.6	5.8
2019.93	6.76
2020.26	7.2
2020.59	7.8
2020.92	8.04
2021.25	7.28
2021.58	6.64
2021.91	6.12
2022.24	5.4
2022.57	5.64
2022.9	5.88
2023.23	5.52
2023.56	6.44
2023.89	7
2024.22	6.52
2024.55	6.84
2024.88	7.44
2025.21	6.88
2025.54	6.16
2025.87	7.56
2026.2	7.8
2026.53	6.72
2026.86	7.04
2027.19	8.16
2027.52	6.76
2027.85	6.76
2028.18	8.04
2028.51	9.32
2028.84	8.64
2029.16	8.76
2029.49	9.04
2029.82	8.48
2030.15	6.4
2030.48	5.24
2030.81	5.52
2031.14	5.8
2031.47	5.88
2031.8	6.64
2032.13	7.4
2032.46	7.08
2032.79	6.04
2033.12	5.28
2033.44	4.76
2033.77	5
2034.1	4.84
2034.43	5.12
2034.76	4.84
2035.09	4.52
2035.42	4.76
2035.75	5.24
2036.08	4.44
2036.41	4.24
2036.73	4.4
2037.06	4.4
2037.39	4
2037.72	4.24
2038.05	4.88
2038.38	4.76
2038.71	4.16
2039.04	3.2
2039.36	2.56
2039.69	2.32
2040.02	3.12
2040.35	3.84
2040.68	5.32
2041.01	5.56
2041.34	5.52
2041.66	4.68
2041.99	3.92
2042.32	4.68
2042.65	5
2042.98	6.04
2043.31	5.96
2043.63	6.96
2043.96	6.24
2044.29	6.2
2044.62	5.52
2044.95	5.96
2045.28	6.12
2045.6	6.16
2045.93	6.04
2046.26	6.16
2046.59	5.64
2046.92	5.04
2047.24	4.52
2047.57	4.44
2047.9	3.76
2048.23	4.28
2048.56	3.96
2048.88	4.12
2049.21	4.44
2049.54	4.08
2049.87	3.2
2050.2	2.8
2050.52	2.16
2050.85	1.92
2051.18	3.24
2051.51	3.8
2051.83	3.92
2052.16	4.08
2052.49	3.48
2052.82	2.24
2053.15	2.2
2053.47	2.2
2053.8	2.16
2054.13	2.64
2054.46	2.56
2054.78	1.96
2055.11	1.68
2055.44	1.28
2055.77	2
2056.09	1.96
2056.42	2.36
2056.75	2.92
2057.08	3.16
2057.4	2
2057.73	2.48
2058.06	2.48
2058.38	2.32
2058.71	2.44
2059.04	2.24
2059.37	2.44
2059.69	2.92
2060.02	3.68
2060.35	3.24
2060.67	3.36
2061	3
2061.33	2.2
2061.66	1.4
2061.98	1.44
2062.31	1.56
2062.64	1.36
2062.96	1.44
2063.29	1.24
2063.62	1.08
2063.94	1.76
2064.27	1.76
2064.6	0.68
2064.92	0.64
2065.25	0.84
2065.58	0.48
2065.91	0.64
2066.23	1.64
2066.56	1.84
2066.89	2.2
2067.21	2.12
2067.54	1.8
2067.87	1.88
2068.19	1.48
2068.52	1.24
2068.84	1.48
2069.17	1.64
2069.5	1.36
2069.82	1.2
2070.15	1.08
2070.48	0.48
2070.8	0.36
2071.13	0.56
2071.46	0.88
2071.78	0.88
2072.11	0.88
2072.43	0.8
2072.76	0.72
2073.09	0.48
2073.41	0.44
2073.74	0.56
2074.07	0.8
2074.39	0.92
2074.72	1.16
2075.04	1.36
2075.37	1.52
2075.7	1.68
2076.02	1.68
2076.35	1.76
2076.67	1.36
2077	1.2
2077.33	0.84
2077.65	0.64
2077.98	0.32
2078.3	0.32
2078.63	0.28
2078.95	0.52
2079.28	0.76
2079.61	0.2
2079.93	0.2
2080.26	0.04
2080.58	-0.12
2080.91	-0.36
2081.23	0.24
2081.56	0.24
2081.89	0.44
2082.21	0.44
2082.54	0.48
2082.86	0.44
2083.19	0.64
2083.51	0.6
2083.84	0.48
2084.16	0.4
2084.49	0.6
2084.81	0.64
2085.14	0.8
2085.46	0.92
2085.79	1.04
2086.12	0.84
2086.44	0.84
2086.77	0.76
2087.09	0.8
2087.42	0.72
2087.74	0.84
2088.07	0.76
2088.39	0.88
2088.72	0.8
2089.04	1.24
2089.37	1.16
2089.69	1.28
2090.02	1.08
2090.34	0.72
2090.67	0.36
2090.99	-1.88
2091.32	-1.6
2091.64	-1.8
2091.97	-1.52
2092.29	-1.64
2092.62	0.76
2092.94	0.84
2093.26	0.96
2093.59	0.96
2093.91	0.04
2094.24	-0.04
2094.56	-0.12
2094.89	0.12
2095.21	0.48
2095.54	1.4
2095.86	1.64
2096.19	1.44
2096.51	1.48
2096.84	1.72
2097.16	1.96
2097.48	1.64
2097.81	1.32
2098.13	0.96
2098.46	0.36
2098.78	0.24
2099.11	0.2
2099.43	0.48
2099.75	0.52
2100.08	0.88
2100.4	1.2
2100.73	1.2
2101.05	1.12
2101.38	1.2
2101.7	0.96
2102.02	0.92
2102.35	1.04
2102.67	0.84
2103	0.8
2103.32	0.88
2103.64	0.84
2103.97	0.72
2104.29	0.8
2104.62	0.68
2104.94	0.48
2105.26	-0.48
2105.59	-0.4
2105.91	-0.48
2106.23	-0.48
2106.56	-0.48
2106.88	0.12
2107.21	0.12
2107.53	0.32
2107.85	0.32
2108.18	0.44
2108.5	0.44
2108.82	0.4
2109.15	0.28
2109.47	0.28
2109.79	0.16
2110.12	0.16
2110.44	0.32
2110.76	0.28
2111.09	0.76
2111.41	0.76
2111.73	0.84
2112.06	0.64
2112.38	0.56
2112.7	-0.28
2113.03	-0.28
2113.35	-0.2
2113.67	-0.04
2114	0.08
2114.32	0.56
2114.64	0.56
2114.97	0.4
2115.29	0.36
2115.61	0.24
2115.94	0.12
2116.26	0.12
2116.58	0.16
2116.91	-0.92
2117.23	-0.84
2117.55	-0.84
2117.87	-0.68
2118.2	-0.68
2118.52	0.4
2118.84	0.32
2119.17	0.56
2119.49	0.4
2119.81	0.52
2120.13	0.4
2120.46	0.4
2120.78	-0.84
2121.1	-0.84
2121.42	-1
2121.75	-1
2122.07	-1
2122.39	0
2122.72	0
2123.04	0.08
2123.36	0.08
2123.68	0.08
2124.01	0.24
2124.33	0.44
2124.65	0.4
2124.97	0.4
2125.29	0.4
2125.62	0.36
2125.94	0.28
2126.26	0.24
2126.58	0.24
2126.91	-0.76
2127.23	-0.88
2127.55	-1
2127.87	-0.84
2128.2	-0.84
2128.52	0.16
2128.84	0.24
2129.16	0.24
2129.48	0.08
2129.81	0.2
2130.13	0.2
2130.45	0.24
2130.77	0.24
2131.09	0.32
2131.42	0.2
2131.74	0.2
2132.06	0.4
2132.38	0.4
2132.7	0.48
2133.02	0.68
2133.35	0.76
2133.67	0.56
2133.99	0.56
2134.31	-0.04
2134.63	-0.16
2134.96	-0.2
2135.28	0.16
2135.6	0.16
2135.92	0.6
2136.24	0.52
2136.56	0.52
2136.88	0.08
2137.21	0.56
2137.53	0.56
2137.85	0.6
2138.17	0.12
2138.49	0.24
2138.81	-0.24
2139.13	-0.16
2139.46	-0.12
2139.78	0.32
2140.1	0.24
2140.42	0.36
2140.74	0.28
2141.06	0.2
2141.38	0.2
2141.7	0.12
2142.03	0.16
2142.35	0.16
2142.67	0.16
2142.99	0.16
2143.31	0.56
2143.63	0.48
2143.95	0.48
2144.27	0.48
2144.59	0.48
2144.91	-0.12
2145.24	-0.2
2145.56	-0.2
2145.88	-0.2
2146.2	-0.2
2146.52	0
2146.84	0
2147.16	0
2147.48	0
2147.8	0
2148.12	0
2148.44	0
2148.76	0
2149.08	0.16
2149.41	0.32
2149.73	0.36
2150.05	0.36
2150.37	0.36
2150.69	0.2
2151.01	0.04
2151.33	0
2151.65	0
2151.97	0
2152.29	0
2152.61	-0.4
2152.93	-0.4
2153.25	-0.24
2153.57	-0.08
2153.89	-0.08
2154.21	-0.08
2154.53	-0.08
2154.85	-0.12
2155.17	-0.2
2155.49	-0.4
2155.81	0
2156.13	0.28
2156.45	0.16
2156.77	0.16
2157.09	0.44
2157.41	0.44
2157.73	0.2
2158.05	0.2
2158.37	0.12
2158.69	0.04
2159.01	0.04
2159.33	0.04
2159.65	0.12
2159.97	0.12
2160.29	0.12
2160.61	0.12
2160.93	0.08
2161.25	0
2161.57	0.2
2161.89	0.2
2162.21	0.4
2162.53	0.4
2162.85	-0.2
2163.17	-0.32
2163.49	-0.28
2163.81	-0.44
2164.13	-0.44
2164.45	-0.44
2164.77	-0.52
2165.08	-0.56
2165.4	-0.4
2165.72	-0.24
2166.04	0.52
2166.36	0.52
2166.68	0.56
2167	0.36
2167.32	0.2
2167.64	0.16
2167.96	0.32
2168.28	0.28
2168.6	0.28
2168.92	0.28
2169.24	0.16
2169.55	0.08
2169.87	0.08
2170.19	0.16
2170.51	0.44
2170.83	0.96
2171.15	0.88
2171.47	0.96
2171.79	0.88
2172.11	0.6
2172.43	0.08
2172.74	0.08
2173.06	0.12
2173.38	0.12
2173.7	0.12
2174.02	0.12
2174.34	0.12
2174.66	0.08
2174.98	0.08
2175.29	0.08
2175.61	0.08
2175.93	0.32
2176.25	0.24
2176.57	0.24
2176.89	0.24
2177.21	0.24
2177.52	0.04
2177.84	0.04
2178.16	0.04
2178.48	0.04
2178.8	0.04
2179.12	0
2179.43	0
2179.75	-0.92
2180.07	-0.92
2180.39	-0.92
2180.71	-0.92
2181.03	-0.92
2181.34	0
2181.66	0
2181.98	0.24
2182.3	0.24
2182.62	0.24
2182.93	-0.16
2183.25	-0.16
2183.57	-0.08
2183.89	-0.08
2184.21	-0.08
2184.52	0.32
2184.84	0.32
2185.16	0.12
2185.48	0.12
2185.8	0.12
2186.11	0.32
2186.43	0.32
2186.75	0.2
2187.07	-0.2
2187.39	-0.92
2187.7	-1
2188.02	-1.6
2188.34	-1.36
2188.66	-0.92
2188.97	-0.2
2189.29	-0.32
2189.61	0.28
2189.93	0.36
2190.24	0.4
2190.56	0.48
2190.88	0.48
2191.2	0.48
2191.51	0.16
2191.83	0.08
2192.15	0.04
2192.47	0.04
2192.78	0.04
2193.1	0.04
2193.42	0.12
2193.74	0.08
2194.05	0.08
2194.37	0.2
2194.69	0.2
2195	-0.28
2195.32	-0.28
2195.64	-0.28
2195.96	-0.4
2196.27	-0.4
2196.59	-0.6
2196.91	-0.6
2197.22	-0.6
2197.54	-0.56
2197.86	-0.48
2198.18	0.12
2198.49	0.12
2198.81	0.16
2199.13	0.12
2199.44	0.12
2199.76	0.32
2200.08	0.32
2200.39	0.36
2200.71	0.36
2201.03	0.28
2201.34	0.12
2201.66	0.12
2201.98	0.04
2202.29	0.04
2202.61	0.04
2202.93	0
2203.24	0
2203.56	0
2203.88	0.04
2204.19	0.04
2204.51	0.04
2204.83	0.04
2205.14	0.04
2205.46	0
2205.78	0
2206.09	0
2206.41	0
2206.72	-0.2
2207.04	-0.2
2207.36	-0.6
2207.67	-0.6
2207.99	-0.52
2208.31	-0.32
2208.62	-0.2
2208.94	0.2
2209.25	0.2
2209.57	0.12
2209.89	0.12
2210.2	0.08
2210.52	0.12
2210.83	0.12
2211.15	0.12
2211.47	0.12
2211.78	0.04
2212.1	-0.4
2212.41	-0.4
2212.73	-0.4
2213.05	-0.4
2213.36	-0.4
2213.68	0
2213.99	0
2214.31	0
2214.62	0
2214.94	0
2215.26	0
2215.57	0
2215.89	0
2216.2	0.04
2216.52	0.04
2216.83	0.04
2217.15	0.16
2217.46	0.16
2217.78	0.12
2218.1	-0.08
2218.41	0.12
2218.73	0.16
2219.04	0.16
2219.36	0.16
2219.67	0.36
2219.99	0.36
2220.3	0.2
2220.62	0.44
2220.93	0.44
2221.25	0.76
2221.56	0.56
2221.88	0.56
2222.19	0.4
2222.51	0.4
2222.82	-1.32
2223.14	-1.28
2223.45	-1.12
2223.77	-1.2
2224.08	-1.16
2224.4	0.24
2224.71	0.24
2225.03	0.08
2225.34	0.24
2225.66	-1.16
2225.97	-1.08
2226.29	-1.12
2226.6	-1.12
2226.92	-1.28
2227.23	0.08
2227.55	0.08
2227.86	0.08
2228.18	0.08
2228.49	0.08
2228.81	0.52
2229.12	0.52
2229.44	0.56
2229.75	0.6
2230.07	0.6
2230.38	0.28
2230.69	0.2
2231.01	0.2
2231.32	0.24
2231.64	0.24
2231.95	0.12
2232.27	0.12
2232.58	0.2
2232.9	0.12
2233.21	0.12
2233.52	0.12
2233.84	0.12
2234.15	0
2234.47	0.04
2234.78	0.16
2235.1	0.16
2235.41	0.32
2235.72	0.32
2236.04	0.28
2236.35	0.28
2236.67	-0.28
2236.98	-0.44
2237.29	-0.44
2237.61	-0.44
2237.92	-0.4
2238.24	0.16
2238.55	0.36
2238.86	0.36
2239.18	0.56
2239.49	-0.4
2239.8	-0.4
2240.12	-0.6
2240.43	-0.56
2240.75	-0.72
2241.06	0.08
2241.37	0.08
2241.69	0.08
2242	0.04
2242.31	0
2242.63	0
2242.94	0
2243.26	-0.6
2243.57	-0.6
2243.88	-0.6
2244.2	-0.6
2244.51	-0.56
2244.82	0.04
2245.14	0.04
2245.45	0.04
2245.76	0.08
2246.08	0.08
2246.39	0.08
2246.7	0.08
2247.02	0.08
2247.33	0.04
2247.64	0
2247.96	0
2248.27	0
2248.58	-1
2248.9	-1
2249.21	-1
2249.52	-0.92
2249.83	-0.92
2250.15	0.08
2250.46	0.08
2250.77	0.16
2251.09	0.2
2251.4	0.2
2251.71	0.2
2252.03	0.2
2252.34	0.2
2252.65	0.08
2252.96	0.08
2253.28	0.08
2253.59	0.08
2253.9	0
2254.21	0
2254.53	0
2254.84	-0.28
2255.15	-0.04
2255.47	-0.04
2255.78	-0.04
2256.09	0.12
2256.4	0.4
2256.72	0.16
2257.03	0.2
2257.34	0.2
2257.65	0.04
2257.97	0.04
2258.28	0.04
2258.59	0.16
2258.9	0.24
2259.22	0.44
2259.53	0.44
2259.84	0.44
2260.15	0.32
2260.46	0.24
2260.78	0.04
2261.09	0.04
2261.4	0.04
2261.71	0.12
2262.03	0.36
2262.34	0.56
2262.65	0.56
2262.96	0.56
2263.27	0.44
2263.59	0.28
2263.9	0.08
2264.21	0.08
2264.52	0.16
2264.83	0.16
2265.15	0.12
2265.46	0.12
2265.77	0.48
2266.08	0.76
2266.39	0.8
2266.7	1.56
2267.02	1.56
2267.33	0.8
2267.64	0.52
2267.95	0.52
2268.26	-0.28
2268.57	-0.28
2268.89	0.16
2269.2	0.16
2269.51	0.12
2269.82	0.12
2270.13	0.32
2270.44	0.28
2270.76	-0.2
2271.07	-0.2
2271.38	-0.6
2271.69	-0.8
2272	-0.8
2272.31	-0.6
2272.62	-1.4
2272.93	-1
2273.25	-1
2273.56	-1
2273.87	-0.8
2274.18	0
2274.49	0
2274.8	0
2275.11	0
2275.42	0
2275.74	0
2276.05	0
2276.36	0
2276.67	0
2276.98	0
2277.29	0.08
2277.6	0.08
2277.91	0.08
2278.22	2.88669e-17
2278.53	0.04
2278.85	0.04
2279.16	-0.96
2279.47	-0.96
2279.78	-0.88
2280.09	-0.92
2280.4	-1
2280.71	0
2281.02	0.12
2281.33	0.12
2281.64	0.16
2281.95	0.2
2282.26	0.2
2282.57	0.2
2282.88	0.4
2283.19	0.48
2283.5	0.44
2283.82	0.44
2284.13	0.32
2284.44	0.12
2284.75	-0.36
2285.06	-0.36
2285.37	-0.36
2285.68	-0.32
2285.99	-0.32
2286.3	0.04
2286.61	0.04
2286.92	0.04
2287.23	0
2287.54	0.04
2287.85	0.04
2288.16	0.04
2288.47	0.04
2288.78	0.08
2289.09	0.04
2289.4	0.08
2289.71	0.48
2290.02	0.48
2290.33	0.56
2290.64	0.72
2290.95	0.48
2291.26	0.08
2291.57	0.08
2291.88	-0.36
2292.19	-0.4
2292.5	-0.2
2292.81	-0.2
2293.12	-0.2
2293.43	0.12
2293.74	0
2294.05	0
2294.36	0
2294.67	0
2294.98	0
2295.29	0
2295.6	0
2295.91	0
2296.21	0
2296.52	0
2296.83	0
2297.14	0
2297.45	0
2297.76	0
2298.07	0
2298.38	0
2298.69	0
2299	0
2299.31	0
2299.62	0
2299.93	0
2300.24	0
2300.55	0
2300.85	0
2301.16	0
2301.47	0
2301.78	0
2302.09	0
2302.4	0
2302.71	0
2303.02	0
2303.33	0
2303.64	0
2303.94	0
2304.25	0
2304.56	0
2304.87	0
2305.18	0
2305.49	0
2305.8	0
2306.11	0
2306.42	0
2306.72	0
2307.03	0
2307.34	0
2307.65	0
2307.96	0
2308.27	0
2308.58	0
2308.88	0
2309.19	0
2309.5	0
2309.81	0
2310.12	0
2310.43	0
2310.74	0
2311.04	0
2311.35	0
2311.66	0
2311.97	0
2312.28	0
2312.59	0
2312.89	0
2313.2	0
2313.51	0
2313.82	0
2314.13	0
2314.43	0
2314.74	0
2315.05	0
2315.36	0
2315.67	0
2315.97	0
2316.28	0
2316.59	0
2316.9	0
2317.21	0
2317.51	0
2317.82	0
2318.13	0
2318.44	0
2318.75	0
2319.05	0
2319.36	0
2319.67	0
2319.98	0
2320.28	0
2320.59	0
2320.9	0
2321.21	0
2321.51	0
2321.82	0
2322.13	0
2322.44	0
2322.74	0
2323.05	0
2323.36	0
2323.67	0
2323.97	0
2324.28	0
2324.59	0
2324.9	0
2325.2	0
2325.51	0
2325.82	0
2326.13	0
2326.43	0
2326.74	0
2327.05	0
2327.35	0
2327.66	0
2327.97	0
2328.27	0
2328.58	0
2328.89	0
2329.2	0
2329.5	0
2329.81	0
2330.12	0
2330.42	0
2330.73	0
2331.04	0
2331.34	0
2331.65	0
2331.96	0
2332.26	0
2332.57	0
2332.88	0
2333.18	0
2333.49	0
2333.8	0
2334.1	0
2334.41	0
2334.72	0
2335.02	0
2335.33	0
2335.64	0
2335.94	0
2336.25	0
2336.56	0
2336.86	0
2337.17	0
2337.48	0
2337.78	0
2338.09	0
2338.39	0
2338.7	0
2339.01	0
2339.31	0
2339.62	0
2339.93	0
2340.23	0
2340.54	0
2340.84	0
2341.15	0
2341.46	0
2341.76	0
2342.07	0
2342.37	0
2342.68	0
2342.99	0
2343.29	0
2343.6	0
2343.9	0
2344.21	0
2344.51	0
2344.82	0
2345.13	0
2345.43	0
2345.74	0
2346.04	0
2346.35	0
2346.65	0
2346.96	0
2347.27	0
2347.57	0
2347.88	0
2348.18	0
2348.49	0
2348.79	0
2349.1	0
2349.4	0
2349.71	0
2350.01	0
2350.32	0
2350.63	0
2350.93	0
2351.24	0
2351.54	0
2351.85	0
2352.15	0
2352.46	0
2352.76	0
2353.07	0
2353.37	0
2353.68	0
2353.98	0
2354.29	0
2354.59	0
2354.9	0
2355.2	0
2355.51	0
2355.81	0
2356.12	0
2356.42	0
2356.73	0
2357.03	0
2357.34	0
2357.64	0
2357.95	0
2358.25	0
2358.55	0
2358.86	0
2359.16	0
2359.47	0
2359.77	0
2360.08	0
2360.38	0
2360.69	0
2360.99	0
2361.3	0
2361.6	0
2361.9	0
2362.21	0
2362.51	0
2362.82	0
2363.12	0
2363.43	0
2363.73	0
2364.04	0
2364.34	0
2364.64	0
2364.95	0
2365.25	0
2365.56	0
2365.86	0
2366.16	0
2366.47	0
2366.77	0
2367.08	0
2367.38	0
2367.68	0
2367.99	0
2368.29	0
2368.6	0
2368.9	0
2369.2	0
2369.51	0
2369.81	0
2370.12	0
2370.42	0
2370.72	0
2371.03	0
2371.33	0
2371.63	0
2371.94	0
2372.24	0
2372.55	0
2372.85	0
2373.15	0
2373.46	0
2373.76	0
2374.06	0
2374.37	0
2374.67	0
2374.97	0
2375.28	0
2375.58	0
2375.88	0
2376.19	0
2376.49	0
2376.79	0
2377.1	0
2377.4	0
2377.7	0
2378.01	0
2378.31	0
2378.61	0
2378.92	0
2379.22	0
2379.52	0
2379.82	0
2380.13	0
2380.43	0
2380.73	0
2381.04	0
2381.34	0
2381.64	0
2381.95	0
2382.25	0
2382.55	0
2382.85	0
2383.16	0
2383.46	0
2383.76	0
2384.06	0
2384.37	0
2384.67	0
2384.97	0
2385.28	0
2385.58	0
2385.88	0
2386.18	0
2386.49	0
2386.79	0
2387.09	0
2387.39	0
2387.69	0
2388	0
2388.3	0
2388.6	0
2388.9	0
2389.21	0
2389.51	0
2389.81	0
2390.11	0
2390.42	0
2390.72	0
2391.02	0
2391.32	0
2391.62	0
2391.93	0
2392.23	0
2392.53	0
2392.83	0
2393.13	0
2393.44	0
2393.74	0
2394.04	0
2394.34	0
2394.64	0
2394.95	0
2395.25	0
2395.55	0
2395.85	0
2396.15	0
2396.45	0
2396.76	0
2397.06	0
2397.36	0
2397.66	0
2397.96	0
2398.26	0
2398.57	0
2398.87	0
2399.17	0
2399.47	0
2399.77	0
2400.07	0
2400.37	0
2400.68	0
2400.98	0
2401.28	0
2401.58	0
2401.88	0
2402.18	0
2402.48	0
2402.79	0
2403.09	0
2403.39	0
2403.69	0
2403.99	0
2404.29	0
2404.59	0
2404.89	0
2405.19	0
2405.5	0
2405.8	0
2406.1	0
2406.4	0
2406.7	0
2407	0
2407.3	0
2407.6	0
2407.9	0
2408.2	0
2408.5	0
2408.8	0
2409.11	0
2409.41	0
2409.71	0
2410.01	0
2410.31	0
2410.61	0
2410.91	0
2411.21	0
2411.51	0
2411.81	0
2412.11	0
2412.41	0
2412.71	0
2413.01	0
2413.31	0
2413.61	0
2413.91	0
2414.21	0
2414.51	0
2414.81	0
2415.12	0
2415.42	0
2415.72	0
2416.02	0
2416.32	0
2416.62	0
2416.92	0
2417.22	0
2417.52	0
2417.82	0
2418.12	0
2418.42	0
2418.72	0
2419.02	0
2419.32	0
2419.62	0
2419.92	0
2420.22	0
2420.52	0
2420.82	0
2421.12	0
2421.42	0
2421.71	0
2422.01	0
2422.31	0
2422.61	0
2422.91	0
2423.21	0
2423.51	0
2423.81	0
2424.11	0
2424.41	0
2424.71	0
2425.01	0
2425.31	0
2425.61	0
2425.91	0
2426.21	0
2426.51	0
2426.81	0
2427.11	0
2427.41	0
2427.7	0
2428	0
2428.3	0
2428.6	0
2428.9	0
2429.2	0
2429.5	0
2429.8	0
2430.1	0
2430.4	0
2430.7	0
2430.99	0
2431.29	0
2431.59	0
2431.89	0
2432.19	0
2432.49	0
2432.79	0
2433.09	0
2433.39	0
2433.68	0
2433.98	0
2434.28	0
2434.58	0
2434.88	0
2435.18	0
2435.48	0
2435.78	0
2436.07	0
2436.37	0
2436.67	0
2436.97	0
2437.27	0
2437.57	0
2437.86	0
2438.16	0
2438.46	0
2438.76	0
2439.06	0
2439.36	0
2439.66	0
2439.95	0
2440.25	0
2440.55	0
2440.85	0
2441.15	0
2441.44	0
2441.74	0
2442.04	0
2442.34	0
2442.64	0
2442.93	0
2443.23	0
2443.53	0
2443.83	0
2444.13	0
2444.42	0
2444.72	0
2445.02	0
2445.32	0
2445.62	0
2445.91	0
2446.21	0
2446.51	0
2446.81	0
2447.1	0
2447.4	0
2447.7	0
2448	0
2448.3	0
2448.59	0
2448.89	0
2449.19	0
2449.49	0
2449.78	0
2450.08	0
2450.38	0
2450.68	0
2450.97	0
2451.27	0
2451.57	0
2451.87	0
2452.16	0
2452.46	0
2452.76	0
2453.05	0
2453.35	0
2453.65	0
2453.95	0
2454.24	0
2454.54	0
2454.84	0
2455.13	0
2455.43	0
2455.73	0
2456.03	0
2456.32	0
2456.62	0
2456.92	0
2457.21	0
2457.51	0
2457.81	0
2458.1	0
2458.4	0
2458.7	0
2458.99	0
2459.29	0
2459.59	0
2459.88	0
2460.18	0
2460.48	0
2460.77	0
2461.07	0
2461.37	0
2461.66	0
2461.96	0
2462.26	0
2462.55	0
2462.85	0
2463.15	0
2463.44	0
2463.74	0
2464.04	0
2464.33	0
2464.63	0
2464.92	0
2465.22	0
2465.52	0
2465.81	0
2466.11	0
2466.41	0
2466.7	0
2467	0
2467.29	0
2467.59	0
2467.89	0
2468.18	0
2468.48	0
2468.77	0
2469.07	0
2469.37	0
2469.66	0
2469.96	0
2470.25	0
2470.55	0
2470.84	0
2471.14	0
2471.44	0
2471.73	0
2472.03	0
2472.32	0
2472.62	0
2472.91	0
2473.21	0
2473.51	0
2473.8	0
2474.1	0
2474.39	0
2474.69	0
2474.98	0
2475.28	0
2475.57	0
2475.87	0
2476.17	0
2476.46	0
2476.76	0
2477.05	0
2477.35	0
2477.64	0
2477.94	0
2478.23	0
2478.53	0
2478.82	0
2479.12	0
2479.41	0
2479.71	0
2480	0
2480.3	0
2480.59	0
2480.89	0
2481.18	0
2481.48	0
2481.77	0
2482.07	0
2482.36	0
2482.66	0
2482.95	0
2483.25	0
2483.54	0
2483.84	0
2484.13	0
2484.43	0
2484.72	0
2485.02	0
2485.31	0
2485.6	0
2485.9	0
2486.19	0
2486.49	0
2486.78	0
2487.08	0
2487.37	0
2487.67	0
2487.96	0
2488.26	0
2488.55	0
2488.84	0
2489.14	0
2489.43	0
2489.73	0
2490.02	0
2490.32	0
2490.61	0
2490.9	0
2491.2	0
2491.49	0
2491.79	0
2492.08	0
2492.37	0
2492.67	0
2492.96	0
2493.26	0
2493.55	0
2493.84	0
2494.14	0
2494.43	0
2494.73	0
2495.02	0
2495.31	0
2495.61	0
2495.9	0
2496.2	0
2496.49	0
2496.78	0
2497.08	0
2497.37	0
2497.66	0
2497.96	0
2498.25	0
2498.54	0
2498.84	0
2499.13	0
2499.43	0
2499.72	0
2500.01	0
2500.31	0
2500.6	0
2500.89	0
2501.19	0
2501.48	0
2501.77	0
2502.07	0
2502.36	0
2502.65	0
2502.95	0
2503.24	0
2503.53	0
2503.82	0
2504.12	0
2504.41	0
2504.7	0
2505	0
2505.29	0
2505.58	0
2505.88	0
2506.17	0
2506.46	0
2506.76	0
2507.05	0
2507.34	0
2507.63	0
2507.93	0
2508.22	0
2508.51	0
2508.8	0
2509.1	0
2509.39	0
2509.68	0
2509.98	0
2510.27	0
2510.56	0
2510.85	0
2511.15	0
2511.44	0
2511.73	0
2512.02	0
2512.32	0
2512.61	0
2512.9	0
2513.19	0
2513.49	0
2513.78	0
2514.07	0
2514.36	0
2514.65	0
2514.95	0
2515.24	0
2515.53	0
2515.82	0
2516.12	0
2516.41	0
2516.7	0
2516.99	0
2517.28	0
2517.58	0
2517.87	0
2518.16	0
2518.45	0
2518.74	0
2519.04	0
2519.33	0
2519.62	0
2519.91	0
2520.2	0
2520.5	0
2520.79	0
2521.08	0
2521.37	0
2521.66	0
2521.95	0
2522.25	0
2522.54	0
2522.83	0
2523.12	0
2523.41	0
2523.7	0
2523.99	0
2524.29	0
2524.58	0
2524.87	0
2525.16	0
2525.45	0
2525.74	0
2526.03	0
2526.33	0
2526.62	0
2526.91	0
2527.2	0
2527.49	0
2527.78	0
2528.07	0
2528.36	0
2528.66	0
2528.95	0
2529.24	0
2529.53	0
2529.82	0
2530.11	0
2530.4	0
2530.69	0
2530.98	0
2531.27	0
2531.57	0
2531.86	0
2532.15	0
2532.44	0
2532.73	0
2533.02	0
2533.31	0
2533.6	0
2533.89	0
2534.18	0
2534.47	0
2534.76	0
2535.05	0
2535.35	0
2535.64	0
2535.93	0
2536.22	0
2536.51	0
2536.8	0
2537.09	0
2537.38	0
2537.67	0
2537.96	0
2538.25	0
2538.54	0
2538.83	0
2539.12	0
2539.41	0
2539.7	0
2539.99	0
2540.28	0
2540.57	0
2540.86	0
2541.15	0
2541.44	0
2541.73	0
2542.02	0
2542.31	0
2542.6	0
2542.89	0
2543.18	0
2543.47	0
2543.76	0
2544.05	0
2544.34	0
2544.63	0
2544.92	0
2545.21	0
2545.5	0
2545.79	0
2546.08	0
2546.37	0
2546.66	0
2546.95	0
2547.24	0
2547.53	0
2547.82	0
2548.11	0
2548.4	0
2548.69	0
2548.98	0
2549.27	0
2549.55	0
2549.84	0
2550.13	0
2550.42	0
2550.71	0
2551	0
2551.29	0
2551.58	0
2551.87	0
2552.16	0
2552.45	0
2552.74	0
2553.03	0
2553.31	0
2553.6	0
2553.89	0
2554.18	0
2554.47	0
2554.76	0
2555.05	0
2555.34	0
2555.63	0
2555.92	0
2556.2	0
2556.49	0
2556.78	0
2557.07	0
2557.36	0
2557.65	0
2557.94	0
2558.23	0
2558.51	0
2558.8	0
2559.09	0
2559.38	0
2559.67	0
2559.96	0
2560.25	0
2560.53	0
2560.82	0
2561.11	0
2561.4	0
2561.69	0
2561.98	0
2562.27	0
2562.55	0
2562.84	0
2563.13	0
2563.42	0
2563.71	0
2564	0
2564.28	0
2564.57	0
2564.86	0
2565.15	0
2565.44	0
2565.72	0
2566.01	0
2566.3	0
2566.59	0
2566.88	0
2567.16	0
2567.45	0
2567.74	0
2568.03	0
2568.32	0
2568.6	0
2568.89	0
2569.18	0
2569.47	0
2569.75	0

