Source: Spectrum Viewer

Chart: Pulse Spectrum

Series: 
Wavelength (nm)	S (a.u.)
1179.9	0
1180.29	0
1180.68	0
1181.06	0
1181.45	0
1181.83	0
1182.22	0
1182.6	0
1182.99	0
1183.38	0
1183.76	0
1184.15	0
1184.53	0
1184.92	0
1185.3	0
1185.69	0
1186.07	0
1186.46	0
1186.85	0
1187.23	0
1187.62	0
1188	0
1188.39	0
1188.77	0
1189.16	0
1189.54	0
1189.93	0
1190.31	0
1190.7	0
1191.08	0
1191.47	0
1191.85	0
1192.24	0
1192.62	0
1193.01	0
1193.39	0
1193.78	0
1194.16	0
1194.55	0
1194.93	0
1195.32	0
1195.7	0
1196.09	0
1196.47	0
1196.86	0
1197.24	0
1197.63	0
1198.01	0
1198.4	0
1198.78	0
1199.16	0
1199.55	0
1199.93	0
1200.32	0
1200.7	0
1201.09	0
1201.47	0
1201.86	0
1202.24	0
1202.63	0
1203.01	0
1203.39	0
1203.78	0
1204.16	0
1204.55	0
1204.93	0
1205.32	0
1205.7	0
1206.08	0
1206.47	0
1206.85	0
1207.24	0
1207.62	0
1208	0
1208.39	0
1208.77	0
1209.16	0
1209.54	0
1209.92	0
1210.31	0
1210.69	0
1211.08	0
1211.46	0
1211.84	0
1212.23	0
1212.61	0
1213	0
1213.38	0
1213.76	0
1214.15	0
1214.53	0
1214.91	0
1215.3	0
1215.68	0
1216.06	0
1216.45	0
1216.83	0
1217.22	0
1217.6	0
1217.98	0
1218.37	0
1218.75	0
1219.13	0
1219.52	0
1219.9	0
1220.28	0
1220.67	0
1221.05	0
1221.43	0
1221.82	0
1222.2	0
1222.58	0
1222.97	0
1223.35	0
1223.73	0
1224.11	0
1224.5	0
1224.88	0
1225.26	0
1225.65	0
1226.03	0
1226.41	0
1226.8	0
1227.18	0
1227.56	0
1227.94	0
1228.33	0
1228.71	0
1229.09	0
1229.47	0
1229.86	0
1230.24	0
1230.62	0
1231.01	0
1231.39	0
1231.77	0
1232.15	0
1232.54	0
1232.92	0
1233.3	0
1233.68	0
1234.07	0
1234.45	0
1234.83	0
1235.21	0
1235.6	0
1235.98	0
1236.36	0
1236.74	0
1237.12	0
1237.51	0
1237.89	0
1238.27	0
1238.65	0
1239.04	0
1239.42	0
1239.8	0
1240.18	0
1240.56	0
1240.95	0
1241.33	0
1241.71	0
1242.09	0
1242.47	0
1242.86	0
1243.24	0
1243.62	0
1244	0
1244.38	0
1244.77	0
1245.15	0
1245.53	0
1245.91	0
1246.29	0
1246.67	0
1247.06	0
1247.44	0
1247.82	0
1248.2	0
1248.58	0
1248.96	0
1249.34	0
1249.73	0
1250.11	0
1250.49	0
1250.87	0
1251.25	0
1251.63	0
1252.01	0
1252.4	0
1252.78	0
1253.16	0
1253.54	0
1253.92	0
1254.3	0
1254.68	0
1255.06	0
1255.45	0
1255.83	0
1256.21	0
1256.59	0
1256.97	0
1257.35	0
1257.73	0
1258.11	0
1258.49	0
1258.87	0
1259.26	0
1259.64	0
1260.02	0
1260.4	0
1260.78	0
1261.16	0
1261.54	0
1261.92	0
1262.3	0
1262.68	0
1263.06	0
1263.44	0
1263.82	0
1264.21	0
1264.59	0
1264.97	0
1265.35	0
1265.73	0
1266.11	0
1266.49	0
1266.87	0
1267.25	0
1267.63	0
1268.01	0
1268.39	0
1268.77	0
1269.15	0
1269.53	0
1269.91	0
1270.29	0
1270.67	0
1271.05	0
1271.43	0
1271.81	0
1272.19	0
1272.57	0
1272.95	0
1273.33	0
1273.71	0
1274.09	0
1274.47	0
1274.85	0
1275.23	0
1275.61	0
1275.99	0
1276.37	0
1276.75	0
1277.13	0
1277.51	0
1277.89	0
1278.27	0
1278.65	0
1279.03	0
1279.41	0
1279.79	0
1280.17	0
1280.55	0
1280.93	0
1281.31	0
1281.69	0
1282.07	0
1282.45	0
1282.82	0
1283.2	0
1283.58	0
1283.96	0
1284.34	0
1284.72	0
1285.1	0
1285.48	0
1285.86	0
1286.24	0
1286.62	0
1287	0
1287.38	0
1287.75	0
1288.13	0
1288.51	0
1288.89	0
1289.27	0
1289.65	0
1290.03	0
1290.41	0
1290.79	0
1291.17	0
1291.54	0
1291.92	0
1292.3	0
1292.68	0
1293.06	0
1293.44	0
1293.82	0
1294.2	0
1294.57	0
1294.95	0
1295.33	0
1295.71	0
1296.09	0
1296.47	0
1296.85	0
1297.22	0
1297.6	0
1297.98	0
1298.36	0
1298.74	0
1299.12	0
1299.5	0
1299.87	0
1300.25	0
1300.63	0
1301.01	0
1301.39	0
1301.77	0
1302.14	0
1302.52	0
1302.9	0
1303.28	0
1303.66	0
1304.03	0
1304.41	0
1304.79	0
1305.17	0
1305.55	0
1305.92	0
1306.3	0
1306.68	0
1307.06	0
1307.44	0
1307.81	0
1308.19	0
1308.57	0
1308.95	0
1309.32	0
1309.7	0
1310.08	0
1310.46	0
1310.84	0
1311.21	0
1311.59	0
1311.97	0
1312.35	0
1312.72	0
1313.1	0
1313.48	0
1313.86	0
1314.23	0
1314.61	0
1314.99	0
1315.37	0
1315.74	0
1316.12	0
1316.5	0
1316.87	0
1317.25	0
1317.63	0
1318.01	0
1318.38	0
1318.76	0
1319.14	0
1319.52	0
1319.89	0
1320.27	0
1320.65	0
1321.02	0
1321.4	0
1321.78	0
1322.15	0
1322.53	0
1322.91	0
1323.29	0
1323.66	0
1324.04	0
1324.42	0
1324.79	0
1325.17	0
1325.55	0
1325.92	0
1326.3	0
1326.68	0
1327.05	0
1327.43	0
1327.81	0
1328.18	0
1328.56	0
1328.94	0
1329.31	0
1329.69	0
1330.06	0
1330.44	0
1330.82	0
1331.19	0
1331.57	0
1331.95	0
1332.32	0
1332.7	0
1333.08	0
1333.45	0
1333.83	0
1334.2	0
1334.58	0
1334.96	0
1335.33	0
1335.71	0
1336.08	0
1336.46	0
1336.84	0
1337.21	0
1337.59	0
1337.96	0
1338.34	0
1338.72	0
1339.09	0
1339.47	0
1339.84	0
1340.22	0
1340.6	0
1340.97	0
1341.35	0
1341.72	0
1342.1	0
1342.47	0
1342.85	0
1343.23	0
1343.6	0
1343.98	0
1344.35	0
1344.73	0
1345.1	0
1345.48	0
1345.85	0
1346.23	0
1346.61	0
1346.98	0
1347.36	0
1347.73	0
1348.11	0
1348.48	0
1348.86	0
1349.23	0
1349.61	0
1349.98	0
1350.36	0
1350.73	0
1351.11	0
1351.48	0
1351.86	0
1352.23	0
1352.61	0
1352.98	0
1353.36	0
1353.73	0
1354.11	0
1354.48	0
1354.86	0
1355.23	0
1355.61	0
1355.98	0
1356.36	0
1356.73	0
1357.11	0
1357.48	0
1357.86	0
1358.23	0
1358.61	0
1358.98	0
1359.35	0
1359.73	0
1360.1	0
1360.48	0
1360.85	0
1361.23	0
1361.6	0
1361.98	0
1362.35	0
1362.72	0
1363.1	0
1363.47	0
1363.85	0
1364.22	0
1364.6	0
1364.97	0
1365.34	0
1365.72	0
1366.09	0
1366.47	0
1366.84	0
1367.22	0
1367.59	0
1367.96	0
1368.34	0
1368.71	0
1369.09	0.32
1369.46	-0.68
1369.83	-0.68
1370.21	-0.68
1370.58	-0.68
1370.96	-1
1371.33	0.08
1371.7	0.08
1372.08	0.16
1372.45	0.32
1372.82	0.32
1373.2	0.24
1373.57	0.36
1373.95	0.28
1374.32	0.32
1374.69	0.68
1375.07	0.68
1375.44	0.64
1375.81	0.68
1376.19	0.6
1376.56	0.24
1376.93	0.24
1377.31	0.16
1377.68	0.12
1378.05	0
1378.43	0
1378.8	0.08
1379.17	0.08
1379.55	0.08
1379.92	0.08
1380.29	0.24
1380.67	0.16
1381.04	0.16
1381.41	0.32
1381.79	0.6
1382.16	0.48
1382.53	0.64
1382.91	-0.36
1383.28	-0.44
1383.65	-0.68
1384.03	-0.72
1384.4	-0.88
1384.77	0.24
1385.14	0.16
1385.52	0.24
1385.89	0.24
1386.26	0.44
1386.64	0.32
1387.01	0.32
1387.38	0.28
1387.75	0.36
1388.13	0.48
1388.5	0.6
1388.87	0.64
1389.25	0.68
1389.62	0.4
1389.99	6.66107e-18
1390.36	-0.12
1390.74	0.04
1391.11	-0.08
1391.48	0.28
1391.85	0.36
1392.23	0.88
1392.6	0.8
1392.97	0.92
1393.34	0.8
1393.72	0.8
1394.09	0.56
1394.46	0.44
1394.83	0.32
1395.21	0.4
1395.58	0.56
1395.95	0.28
1396.32	0.64
1396.69	0.72
1397.07	0.68
1397.44	0.56
1397.81	0.56
1398.18	0.2
1398.55	0.2
1398.93	0.12
1399.3	0.08
1399.67	0.08
1400.04	0.08
1400.41	0
1400.79	0
1401.16	0.04
1401.53	0.16
1401.9	0.2
1402.27	0.2
1402.65	0.28
1403.02	0.28
1403.39	0.16
1403.76	-0.28
1404.13	-0.16
1404.51	-0.08
1404.88	-0.12
1405.25	-0.12
1405.62	0.48
1405.99	0.52
1406.36	0.36
1406.74	0.56
1407.11	0.6
1407.48	0.4
1407.85	-0.96
1408.22	-0.96
1408.59	-1.12
1408.96	-1.16
1409.34	-0.84
1409.71	0.36
1410.08	0.4
1410.45	0.4
1410.82	0.4
1411.19	0.08
1411.56	0.08
1411.93	0.08
1412.31	0.08
1412.68	0.08
1413.05	0.08
1413.42	0.2
1413.79	0.24
1414.16	0
1414.53	0
1414.9	-0.2
1415.27	-0.2
1415.65	-0.2
1416.02	-6.66107e-18
1416.39	-6.66107e-18
1416.76	0.32
1417.13	0.56
1417.5	0.48
1417.87	0.64
1418.24	0.64
1418.61	0.52
1418.98	0.32
1419.35	0.32
1419.73	0.16
1420.1	0.16
1420.47	0.2
1420.84	0.08
1421.21	0.28
1421.58	0.28
1421.95	0.64
1422.32	0.6
1422.69	0.88
1423.06	0.68
1423.43	0.92
1423.8	0.56
1424.17	0.56
1424.54	0.24
1424.91	0.24
1425.28	0
1425.65	0
1426.02	0
1426.39	0
1426.76	-0.6
1427.14	-0.6
1427.51	-0.6
1427.88	-0.6
1428.25	-0.4
1428.62	0.28
1428.99	0.36
1429.36	0.52
1429.73	0.52
1430.1	0.32
1430.47	0.24
1430.84	0.16
1431.21	0.12
1431.58	0.12
1431.95	0.28
1432.32	0.08
1432.69	0.08
1433.06	-0.04
1433.43	-0.04
1433.8	-0.12
1434.17	0.08
1434.54	0.08
1434.91	0.08
1435.28	0.12
1435.64	0.04
1436.01	-0.56
1436.38	-0.44
1436.75	-0.4
1437.12	-0.44
1437.49	-0.44
1437.86	0.16
1438.23	0.04
1438.6	0.28
1438.97	0.28
1439.34	0.32
1439.71	0.32
1440.08	0.32
1440.45	0.04
1440.82	-0.56
1441.19	-0.52
1441.56	-0.08
1441.93	0.24
1442.3	0.24
1442.67	-0.76
1443.03	-0.84
1443.4	-1.2
1443.77	-1.48
1444.14	-1.48
1444.51	0.12
1444.88	0.28
1445.25	0.2
1445.62	0.44
1445.99	0.72
1446.36	0.72
1446.73	0.56
1447.09	0.6
1447.46	0.48
1447.83	0.2
1448.2	0.2
1448.57	0.08
1448.94	0.12
1449.31	0.04
1449.68	0.04
1450.05	0.04
1450.41	0.2
1450.78	-0.28
1451.15	-0.24
1451.52	-0.2
1451.89	-0.2
1452.26	-0.24
1452.63	0.36
1453	0.24
1453.36	0.44
1453.73	0.44
1454.1	0.44
1454.47	0.24
1454.84	0.24
1455.21	0.04
1455.57	-0.36
1455.94	0.04
1456.31	0.16
1456.68	0.16
1457.05	0.32
1457.42	0.72
1457.78	0.32
1458.15	0.2
1458.52	0.24
1458.89	0.08
1459.26	0.2
1459.63	0.2
1459.99	0.4
1460.36	0.52
1460.73	0.48
1461.1	0.52
1461.47	0.6
1461.83	0.4
1462.2	0.24
1462.57	0.24
1462.94	0.36
1463.31	0.28
1463.67	0.4
1464.04	0.24
1464.41	0.32
1464.78	-0.52
1465.15	-0.48
1465.51	-0.6
1465.88	-0.36
1466.25	-0.36
1466.62	0.28
1466.98	0.24
1467.35	0.24
1467.72	0.16
1468.09	0.08
1468.46	0
1468.82	0.12
1469.19	0.12
1469.56	0.12
1469.93	0.12
1470.29	0.2
1470.66	0.28
1471.03	0.32
1471.4	0.32
1471.76	0.48
1472.13	0.4
1472.5	0.24
1472.86	0.44
1473.23	0.68
1473.6	0.56
1473.97	0.56
1474.33	0.96
1474.7	0.72
1475.07	0.68
1475.44	1
1475.8	0.88
1476.17	0.44
1476.54	0.44
1476.9	0.48
1477.27	0.24
1477.64	0.48
1478	0.48
1478.37	0.6
1478.74	0.36
1479.11	0.24
1479.47	0.2
1479.84	0.32
1480.21	0.2
1480.57	0.4
1480.94	0.44
1481.31	0.6
1481.67	0.48
1482.04	0.48
1482.41	0.72
1482.77	0.68
1483.14	0.44
1483.51	0.44
1483.87	0.52
1484.24	0.08
1484.61	0.08
1484.97	0.08
1485.34	0.12
1485.71	-0.88
1486.07	-0.64
1486.44	-0.64
1486.81	-0.56
1487.17	-0.6
1487.54	0.32
1487.9	0.08
1488.27	0.08
1488.64	-0.2
1489	-0.2
1489.37	-0.16
1489.74	-0.16
1490.1	1.44334e-17
1490.47	0.2
1490.83	0.2
1491.2	0.16
1491.57	0.24
1491.93	0.08
1492.3	0.08
1492.66	0.08
1493.03	0.08
1493.4	0.16
1493.76	0.16
1494.13	0.24
1494.49	0.24
1494.86	0.4
1495.23	0.24
1495.59	0.36
1495.96	-1.12
1496.32	-1.12
1496.69	-1.24
1497.06	-0.72
1497.42	-1.52
1497.79	3.44166e-17
1498.15	3.44166e-17
1498.52	0.08
1498.88	-0.4
1499.25	0.28
1499.62	-0.24
1499.98	-0.24
1500.35	-0.36
1500.71	-0.32
1501.08	2.88669e-17
1501.44	0.6
1501.81	0.92
1502.17	1.08
1502.54	1.36
1502.9	1.04
1503.27	0.84
1503.64	0.52
1504	0.36
1504.37	0
1504.73	0
1505.1	0
1505.46	0
1505.83	0
1506.19	0
1506.56	0
1506.92	0.08
1507.29	0.08
1507.65	0.08
1508.02	0.24
1508.38	0.56
1508.75	0.48
1509.11	0.56
1509.48	0.72
1509.84	0.56
1510.21	0.24
1510.57	0.24
1510.94	0.16
1511.3	0.08
1511.67	0.08
1512.03	0.08
1512.4	0.08
1512.76	0.12
1513.13	-0.96
1513.49	-1.16
1513.85	-1.12
1514.22	-1.12
1514.58	-1.16
1514.95	0.16
1515.31	0.36
1515.68	0.4
1516.04	0.4
1516.41	0.68
1516.77	0.8
1517.14	0.8
1517.5	0.84
1517.86	0.84
1518.23	0.6
1518.59	0.24
1518.96	0.28
1519.32	0.16
1519.69	0.16
1520.05	0.12
1520.41	0.04
1520.78	0
1521.14	0
1521.51	0
1521.87	0
1522.24	0.04
1522.6	0.04
1522.96	0.04
1523.33	0.24
1523.69	0.24
1524.06	0.2
1524.42	0.24
1524.78	0.32
1525.15	0.24
1525.51	0.24
1525.88	0.36
1526.24	0.6
1526.6	0.52
1526.97	0.4
1527.33	0.44
1527.69	0.32
1528.06	0.12
1528.42	0.16
1528.79	0.16
1529.15	-0.68
1529.51	-0.68
1529.88	-0.48
1530.24	-0.28
1530.6	-0.28
1530.97	0.6
1531.33	0.6
1531.69	0.32
1532.06	0.08
1532.42	0.12
1532.78	0.04
1533.15	0.08
1533.51	0.16
1533.87	0.16
1534.24	0.24
1534.6	0.4
1534.96	0.36
1535.33	0.28
1535.69	0.28
1536.05	0.2
1536.42	0.12
1536.78	0.32
1537.14	0.32
1537.51	0.36
1537.87	0.48
1538.23	0.4
1538.6	0.2
1538.96	0.32
1539.32	0.28
1539.68	0.12
1540.05	0.12
1540.41	0.16
1540.77	0.12
1541.14	0.36
1541.5	0.36
1541.86	0.76
1542.23	0.96
1542.59	0.88
1542.95	0.72
1543.31	0.8
1543.68	0.64
1544.04	0.6
1544.4	0.6
1544.76	0.52
1545.13	0.44
1545.49	0.24
1545.85	0.04
1546.21	0.04
1546.58	0.04
1546.94	0.08
1547.3	0.04
1547.66	0.04
1548.03	0.04
1548.39	0.04
1548.75	0
1549.11	0
1549.48	0.08
1549.84	0.08
1550.2	0.44
1550.56	0.44
1550.93	0.44
1551.29	0.44
1551.65	0.48
1552.01	0.12
1552.37	0.12
1552.74	0.28
1553.1	0.32
1553.46	0.28
1553.82	0.28
1554.18	0.72
1554.55	0.8
1554.91	0.68
1555.27	0.68
1555.63	0.68
1555.99	0.28
1556.36	0.12
1556.72	-1.48
1557.08	-1.48
1557.44	-1.48
1557.8	-1.52
1558.17	-1.6
1558.53	0
1558.89	0.08
1559.25	0.08
1559.61	0.2
1559.97	0.32
1560.34	0.48
1560.7	0.4
1561.06	0.6
1561.42	0.48
1561.78	0.36
1562.14	-0.2
1562.5	-0.16
1562.87	-0.36
1563.23	-0.2
1563.59	-0.6
1563.95	-0.2
1564.31	-0.2
1564.67	0.04
1565.03	-0.08
1565.4	0.36
1565.76	0.4
1566.12	0.4
1566.48	0.24
1566.84	0.24
1567.2	0.24
1567.56	0.28
1567.92	0.6
1568.29	0.52
1568.65	0.64
1569.01	0.6
1569.37	0.16
1569.73	-0.2
1570.09	-0.04
1570.45	-0.08
1570.81	-0.08
1571.17	0.64
1571.53	0.8
1571.89	0.64
1572.26	0.52
1572.62	0.52
1572.98	0.16
1573.34	0.24
1573.7	0.24
1574.06	0.24
1574.42	0.24
1574.78	0.12
1575.14	0.08
1575.5	0.08
1575.86	-0.72
1576.22	-0.4
1576.58	-0.2
1576.94	-0.4
1577.3	-0.32
1577.67	0.48
1578.03	0.16
1578.39	0.12
1578.75	0.24
1579.11	0.16
1579.47	0.2
1579.83	0.2
1580.19	0.16
1580.55	0.04
1580.91	0.2
1581.27	0.4
1581.63	0.4
1581.99	0.4
1582.35	0.48
1582.71	0.68
1583.07	0.6
1583.43	0.6
1583.79	0.6
1584.15	0.52
1584.51	0.16
1584.87	0
1585.23	0
1585.59	0.04
1585.95	0.16
1586.31	0.16
1586.67	0.16
1587.03	0.16
1587.39	0.12
1587.75	0.12
1588.11	0.12
1588.47	0.12
1588.83	0.32
1589.19	0.32
1589.55	0.2
1589.91	0.2
1590.27	0.32
1590.63	0.12
1590.99	0.12
1591.35	0.44
1591.71	0.56
1592.07	0.44
1592.42	0.44
1592.78	0.48
1593.14	0.16
1593.5	0.08
1593.86	0.08
1594.22	0.08
1594.58	0.2
1594.94	0.44
1595.3	0.52
1595.66	0.52
1596.02	0.52
1596.38	0.36
1596.74	0.36
1597.1	0.24
1597.46	0.24
1597.81	0.24
1598.17	0.4
1598.53	0.24
1598.89	0.24
1599.25	0.28
1599.61	0.32
1599.97	0.24
1600.33	0.2
1600.69	0.36
1601.05	0.32
1601.4	0.4
1601.76	-0.08
1602.12	-0.04
1602.48	0.08
1602.84	0.08
1603.2	0.16
1603.56	0.56
1603.92	0.56
1604.28	0.32
1604.63	0.36
1604.99	0.16
1605.35	0.16
1605.71	0.16
1606.07	0.16
1606.43	0.12
1606.79	0.12
1607.14	0.68
1607.5	0.6
1607.86	0.56
1608.22	0.8
1608.58	0.8
1608.94	0.24
1609.29	0.44
1609.65	0.36
1610.01	0.12
1610.37	0.12
1610.73	0.12
1611.09	-0.04
1611.44	0.04
1611.8	0.04
1612.16	0.04
1612.52	0.04
1612.88	0.2
1613.24	0.2
1613.59	0.2
1613.95	0.2
1614.31	0.2
1614.67	0.04
1615.03	0.04
1615.38	0.16
1615.74	0.16
1616.1	0.16
1616.46	0.24
1616.82	0.24
1617.17	0.12
1617.53	0.28
1617.89	0.28
1618.25	0.16
1618.6	0.44
1618.96	0.44
1619.32	0.36
1619.68	0.36
1620.04	0.48
1620.39	0.04
1620.75	0.04
1621.11	-0.04
1621.47	0.12
1621.82	-1.33221e-17
1622.18	0.24
1622.54	0.24
1622.9	0.28
1623.25	-0.64
1623.61	-0.56
1623.97	-0.64
1624.33	-0.64
1624.68	-0.88
1625.04	6.66107e-18
1625.4	0.12
1625.75	-0.12
1626.11	-0.12
1626.47	0.08
1626.83	0.08
1627.18	0.08
1627.54	0.32
1627.9	0.32
1628.26	0.32
1628.61	0.32
1628.97	0.12
1629.33	0.16
1629.68	0.16
1630.04	0.16
1630.4	-0.56
1630.75	-0.56
1631.11	-0.6
1631.47	-0.52
1631.83	-0.44
1632.18	0.16
1632.54	0.28
1632.9	0.32
1633.25	0.24
1633.61	0.2
1633.97	0.2
1634.32	0.44
1634.68	0.4
1635.04	0.4
1635.39	0.36
1635.75	0.36
1636.11	0
1636.46	0
1636.82	0
1637.18	0
1637.53	0.2
1637.89	0.2
1638.25	0.2
1638.6	0.44
1638.96	0.44
1639.31	0.24
1639.67	0.24
1640.03	0.4
1640.38	0.16
1640.74	0.16
1641.1	0.16
1641.45	0.32
1641.81	0.16
1642.16	0.24
1642.52	0.28
1642.88	0.28
1643.23	-0.48
1643.59	-0.48
1643.95	-0.52
1644.3	-0.2
1644.66	-0.12
1645.01	0.48
1645.37	0.48
1645.73	0.44
1646.08	0.16
1646.44	0.08
1646.79	-0.52
1647.15	-0.52
1647.51	-0.36
1647.86	-0.44
1648.22	-0.44
1648.57	-0.32
1648.93	-0.32
1649.28	-0.48
1649.64	-0.44
1650	-0.2
1650.35	0.32
1650.71	0.36
1651.06	0.36
1651.42	0.48
1651.77	0.04
1652.13	2.77556e-17
1652.48	0.08
1652.84	0.08
1653.2	-0.08
1653.55	0.12
1653.91	0.12
1654.26	0
1654.62	0.08
1654.97	0.12
1655.33	0.12
1655.68	0.12
1656.04	0.4
1656.39	0.32
1656.75	0.32
1657.1	0.32
1657.46	0.6
1657.81	0.32
1658.17	0.32
1658.52	0.4
1658.88	0.52
1659.23	0.56
1659.59	0.76
1659.94	0.92
1660.3	0.84
1660.65	0.72
1661.01	0.48
1661.36	0.36
1661.72	0.2
1662.07	0.16
1662.43	0.2
1662.78	0.12
1663.14	0.16
1663.49	0.16
1663.85	0.72
1664.2	0.76
1664.56	0.88
1664.91	-1.04
1665.27	-1.04
1665.62	-1.6
1665.98	-1.48
1666.33	-1.6
1666.69	0.6
1667.04	0.6
1667.39	0.68
1667.75	0.48
1668.1	0.48
1668.46	0.2
1668.81	0.2
1669.17	0.12
1669.52	0.12
1669.88	0.48
1670.23	0.36
1670.58	0.48
1670.94	0.48
1671.29	0.48
1671.65	0.12
1672	0.12
1672.36	0
1672.71	0.12
1673.06	0.12
1673.42	0.12
1673.77	0.32
1674.13	0.32
1674.48	0.2
1674.83	0.2
1675.19	0.2
1675.54	0.04
1675.9	0.04
1676.25	0.16
1676.6	0.16
1676.96	0.16
1677.31	0.12
1677.67	0.28
1678.02	0.2
1678.37	0.4
1678.73	0.4
1679.08	0.4
1679.43	0.36
1679.79	0.44
1680.14	0.36
1680.5	-0.24
1680.85	-0.24
1681.2	-0.36
1681.56	-0.48
1681.91	-0.56
1682.26	0.04
1682.62	0.04
1682.97	0.04
1683.32	0.32
1683.68	0.28
1684.03	0.32
1684.38	0.32
1684.74	0.6
1685.09	0.32
1685.44	0.12
1685.8	0.08
1686.15	0.08
1686.5	-0.2
1686.86	-0.08
1687.21	-0.08
1687.56	-0.04
1687.92	-0.04
1688.27	0.16
1688.62	0.04
1688.98	0.4
1689.33	0.36
1689.68	0.4
1690.03	0.32
1690.39	0.32
1690.74	0.24
1691.09	0.28
1691.45	-0.16
1691.8	-0.28
1692.15	-0.16
1692.5	-0.24
1692.86	-0.28
1693.21	0.12
1693.56	0.24
1693.92	0.16
1694.27	-0.28
1694.62	-0.28
1694.97	-0.12
1695.33	-0.12
1695.68	-0.16
1696.03	0.28
1696.38	0.28
1696.74	0.12
1697.09	-0.16
1697.44	-0.04
1697.79	0.16
1698.15	0.24
1698.5	0.48
1698.85	0.64
1699.2	-0.28
1699.56	-0.32
1699.91	-0.36
1700.26	-0.6
1700.61	-0.6
1700.97	0.2
1701.32	0.04
1701.67	0
1702.02	0.08
1702.37	0.16
1702.73	0.16
1703.08	0.48
1703.43	0.48
1703.78	0.4
1704.13	0.48
1704.49	0.68
1704.84	0.36
1705.19	0.36
1705.54	0.52
1705.89	0.88
1706.25	0.76
1706.6	0.76
1706.95	0.76
1707.3	0.6
1707.65	0.08
1708.01	0
1708.36	0.2
1708.71	0.2
1709.06	0.2
1709.41	0.2
1709.76	0.24
1710.12	0.04
1710.47	0.16
1710.82	0.24
1711.17	0.32
1711.52	0.36
1711.87	0.64
1712.23	0.52
1712.58	0.44
1712.93	0.72
1713.28	0.92
1713.63	0.64
1713.98	1.04
1714.33	1.04
1714.69	0.68
1715.04	0.4
1715.39	0.4
1715.74	0
1716.09	0.36
1716.44	0.8
1716.79	1.12
1717.14	1.2
1717.5	1.2
1717.85	0.84
1718.2	0.52
1718.55	0.2
1718.9	0.12
1719.25	0.16
1719.6	0.16
1719.95	0.2
1720.3	0.32
1720.65	0.48
1721.01	0.44
1721.36	0.44
1721.71	0.48
1722.06	-0.24
1722.41	-0.56
1722.76	-0.44
1723.11	-0.44
1723.46	-0.64
1723.81	0.12
1724.16	0.28
1724.51	0.16
1724.86	0.24
1725.21	0.56
1725.56	0.52
1725.92	0.64
1726.27	0.64
1726.62	0.72
1726.97	0.4
1727.32	0.04
1727.67	-0.08
1728.02	-0.08
1728.37	-0.24
1728.72	-0.24
1729.07	0.56
1729.42	0.56
1729.77	0.56
1730.12	0.56
1730.47	0.76
1730.82	0.2
1731.17	0.24
1731.52	0.28
1731.87	0.52
1732.22	0.32
1732.57	0.32
1732.92	0.28
1733.27	0.24
1733.62	0.16
1733.97	0.16
1734.32	0.32
1734.67	0.6
1735.02	0.28
1735.37	0.12
1735.72	0.36
1736.07	0.2
1736.42	-0.08
1736.77	0.48
1737.12	0.48
1737.47	0.44
1737.82	0.44
1738.17	0.76
1738.52	0.8
1738.87	0.8
1739.22	0.88
1739.57	1.12
1739.92	0.8
1740.27	1
1740.62	1.04
1740.97	1.08
1741.32	1.08
1741.67	1.4
1742.02	1
1742.37	0.96
1742.72	0.76
1743.06	0.52
1743.41	0.24
1743.76	0.48
1744.11	-0.72
1744.46	-0.76
1744.81	-0.56
1745.16	-0.32
1745.51	-0.24
1745.86	1.48
1746.21	1.56
1746.56	2.08
1746.91	2.64
1747.26	2.6
1747.6	2.96
1747.95	3.32
1748.3	3.76
1748.65	4
1749	4.24
1749.35	4.12
1749.7	3.72
1750.05	3.24
1750.4	2.72
1750.75	3.84
1751.09	3.8
1751.44	4.88
1751.79	4.64
1752.14	4.92
1752.49	3.76
1752.84	3.96
1753.19	3.48
1753.54	4.28
1753.88	4.28
1754.23	4.88
1754.58	5.48
1754.93	5.32
1755.28	6.48
1755.63	6.52
1755.98	6.68
1756.32	6.28
1756.67	7.72
1757.02	5.76
1757.37	6.36
1757.72	6.08
1758.07	6.24
1758.42	4.92
1758.76	5.76
1759.11	5.36
1759.46	5.96
1759.81	5.52
1760.16	5.44
1760.5	4.8
1760.85	4.6
1761.2	4.16
1761.55	3.96
1761.9	5.2
1762.25	6.8
1762.59	6.92
1762.94	6.8
1763.29	8.12
1763.64	7.88
1763.99	7.36
1764.33	6.92
1764.68	6.88
1765.03	6.6
1765.38	5.2
1765.73	5.32
1766.07	6.4
1766.42	6.68
1766.77	5.52
1767.12	7.56
1767.46	6.48
1767.81	7.2
1768.16	7.52
1768.51	8.68
1768.85	8.36
1769.2	8.76
1769.55	7.52
1769.9	6.84
1770.25	6.56
1770.59	5.88
1770.94	6.4
1771.29	6.04
1771.64	6.12
1771.98	6.44
1772.33	6.32
1772.68	6.32
1773.02	6.84
1773.37	6.48
1773.72	5.56
1774.07	6.16
1774.41	4.84
1774.76	3.72
1775.11	3.72
1775.46	3.88
1775.8	4.04
1776.15	4.04
1776.5	4.92
1776.84	5.28
1777.19	5.52
1777.54	5.12
1777.89	5.56
1778.23	5.68
1778.58	6.08
1778.93	6
1779.27	4.72
1779.62	5.4
1779.97	5.68
1780.31	5.04
1780.66	4.12
1781.01	4.16
1781.35	2.76
1781.7	1.56
1782.05	0.92
1782.39	0.96
1782.74	1.56
1783.09	2
1783.43	2.2
1783.78	2.12
1784.13	2.4
1784.47	1.28
1784.82	1.36
1785.17	1.2
1785.51	1.12
1785.86	0.76
1786.21	1.16
1786.55	1
1786.9	0.96
1787.25	1.12
1787.59	1.28
1787.94	1.32
1788.29	0.88
1788.63	0.88
1788.98	0.88
1789.32	0.92
1789.67	1.16
1790.02	1.28
1790.36	1.08
1790.71	0.92
1791.06	0.6
1791.4	0.24
1791.75	0.28
1792.09	0.72
1792.44	0.44
1792.79	-1.2
1793.13	-1.24
1793.48	-1.36
1793.82	-1.84
1794.17	-3.72
1794.52	-1.92
1794.86	-1.92
1795.21	-1.72
1795.55	-1.68
1795.9	1.32
1796.24	2.36
1796.59	2.76
1796.94	2.76
1797.28	2.92
1797.63	2.08
1797.97	0.84
1798.32	0.44
1798.66	0.64
1799.01	0.92
1799.36	1
1799.7	1.16
1800.05	1.2
1800.39	1.04
1800.74	2.24
1801.08	3.56
1801.43	3.48
1801.77	3.64
1802.12	3.44
1802.46	1.88
1802.81	0.6
1803.15	0.6
1803.5	0.4
1803.85	0.36
1804.19	1.84
1804.54	3.48
1804.88	4.44
1805.23	5.04
1805.57	7.6
1805.92	7.44
1806.26	6.24
1806.61	5.92
1806.95	7.84
1807.3	9.04
1807.64	9.24
1807.99	8.96
1808.33	8.24
1808.68	7.8
1809.02	11.52
1809.37	13.96
1809.71	14.84
1810.06	16.28
1810.4	14.84
1810.75	9.4
1811.09	12.72
1811.43	19.2
1811.78	21.44
1812.12	24.36
1812.47	23.68
1812.81	18.12
1813.16	13.36
1813.5	11.48
1813.85	9
1814.19	9.16
1814.54	8.88
1814.88	6.68
1815.23	5.28
1815.57	4.52
1815.91	4.76
1816.26	11.68
1816.6	18.68
1816.95	21.8
1817.29	27.48
1817.64	31.72
1817.98	29.4
1818.32	29.84
1818.67	32.84
1819.01	30.48
1819.36	29.2
1819.7	26.8
1820.05	22.28
1820.39	23.6
1820.73	24
1821.08	21.72
1821.42	22.72
1821.77	23.28
1822.11	16.4
1822.45	17.12
1822.8	21.52
1823.14	18.68
1823.49	23.44
1823.83	39.8
1824.17	45.44
1824.52	46.12
1824.86	53
1825.2	48.84
1825.55	35.44
1825.89	28.56
1826.24	28.16
1826.58	34
1826.92	42.68
1827.27	45.16
1827.61	49.96
1827.95	51.56
1828.3	40.64
1828.64	31.96
1828.98	30.84
1829.33	28.76
1829.67	36.08
1830.02	49.36
1830.36	53.4
1830.7	61.8
1831.05	69.84
1831.39	62.56
1831.73	54.28
1832.08	58.44
1832.42	50.72
1832.76	42.08
1833.1	44.12
1833.45	41.16
1833.79	35.68
1834.13	40.44
1834.48	43.48
1834.82	42.64
1835.16	48.6
1835.51	47.96
1835.85	43.4
1836.19	44.52
1836.54	38.76
1836.88	32.04
1837.22	29.36
1837.56	29.2
1837.91	29.2
1838.25	42.68
1838.59	51.04
1838.94	56.24
1839.28	61.6
1839.62	59.8
1839.96	50.64
1840.31	46.48
1840.65	44.48
1840.99	42.92
1841.34	58.92
1841.68	70.88
1842.02	76.48
1842.36	82.32
1842.71	83.4
1843.05	66.6
1843.39	64.84
1843.73	76.64
1844.08	82.96
1844.42	92.88
1844.76	109.4
1845.1	107.44
1845.45	93.28
1845.79	91.6
1846.13	87.96
1846.47	79.56
1846.81	78.48
1847.16	78.44
1847.5	79.32
1847.84	88.48
1848.18	94.16
1848.53	95.52
1848.87	102.24
1849.21	99.16
1849.55	87.36
1849.89	84.88
1850.24	81.68
1850.58	74.8
1850.92	76
1851.26	76.76
1851.6	70.6
1851.95	74.28
1852.29	75.64
1852.63	71.32
1852.97	70.24
1853.31	69.44
1853.66	64.04
1854	62.76
1854.34	61.32
1854.68	64.68
1855.02	74.4
1855.36	78.04
1855.71	78.44
1856.05	84.44
1856.39	79.16
1856.73	68.76
1857.07	67.36
1857.41	66.96
1857.76	61.36
1858.1	66.32
1858.44	66.28
1858.78	61.96
1859.12	64.76
1859.46	62.96
1859.8	54.4
1860.15	52.64
1860.49	55
1860.83	57.76
1861.17	67.72
1861.51	70.8
1861.85	70.4
1862.19	68.28
1862.53	62.68
1862.88	55.44
1863.22	58.72
1863.56	60
1863.9	61.12
1864.24	64.16
1864.58	62.04
1864.92	58.76
1865.26	63.6
1865.6	59.92
1865.94	55.04
1866.29	56.04
1866.63	52
1866.97	46.2
1867.31	46.6
1867.65	44.28
1867.99	44.32
1868.33	43.96
1868.67	40.8
1869.01	39.52
1869.35	41.12
1869.69	42.2
1870.03	47.96
1870.37	53.88
1870.72	59.08
1871.06	61.52
1871.4	56.68
1871.74	50
1872.08	45
1872.42	44.68
1872.76	46.12
1873.1	51.56
1873.44	54.24
1873.78	54
1874.12	46.8
1874.46	39.24
1874.8	39.04
1875.14	43.04
1875.48	46.44
1875.82	50.44
1876.16	54.32
1876.5	51.96
1876.84	51.16
1877.18	49.32
1877.52	47.68
1877.86	46.28
1878.2	43.84
1878.54	35.84
1878.88	34.36
1879.22	34
1879.56	30.92
1879.9	27.64
1880.24	28.4
1880.58	26.6
1880.92	26.28
1881.26	28.08
1881.6	26.8
1881.94	26.8
1882.28	26.64
1882.62	23.96
1882.96	23.6
1883.3	30
1883.64	33.04
1883.98	32.96
1884.32	35.04
1884.66	33.76
1885	27.88
1885.34	25.4
1885.68	26.52
1886.02	23.8
1886.36	22.52
1886.7	25.12
1887.04	23.16
1887.38	20.12
1887.72	19.24
1888.06	16.56
1888.39	11.24
1888.73	10
1889.07	10.08
1889.41	12.04
1889.75	11.96
1890.09	15.28
1890.43	19.84
1890.77	23.16
1891.11	25.04
1891.45	28.2
1891.79	27.68
1892.13	22.48
1892.47	19.28
1892.8	14.16
1893.14	11.6
1893.48	10.28
1893.82	10.96
1894.16	10.84
1894.5	14.76
1894.84	15
1895.18	12.72
1895.52	13.4
1895.86	12.8
1896.19	8.36
1896.53	7.8
1896.87	9
1897.21	6.32
1897.55	6.32
1897.89	7.68
1898.23	7.56
1898.57	7.8
1898.9	8.8
1899.24	7.52
1899.58	6.52
1899.92	6.88
1900.26	5.36
1900.6	4.56
1900.94	4.32
1901.27	4.04
1901.61	2.32
1901.95	2.88
1902.29	2.48
1902.63	2.16
1902.97	1.92
1903.3	2.28
1903.64	2.16
1903.98	2.28
1904.32	3.32
1904.66	3.32
1905	3.56
1905.33	3.2
1905.67	3.6
1906.01	2.4
1906.35	2.32
1906.69	1.76
1907.02	2.8
1907.36	2.04
1907.7	2.44
1908.04	2.44
1908.38	3.04
1908.71	1.92
1909.05	2.48
1909.39	2.52
1909.73	2.76
1910.07	2
1910.4	2.16
1910.74	2.2
1911.08	1.8
1911.42	1.68
1911.76	2.04
1912.09	1.52
1912.43	1.44
1912.77	1.72
1913.11	1.72
1913.44	1.8
1913.78	1.76
1914.12	1.76
1914.46	1.96
1914.79	1.96
1915.13	1.52
1915.47	1.72
1915.81	1.2
1916.14	0.92
1916.48	1
1916.82	1.44
1917.16	0.92
1917.49	1.08
1917.83	1.24
1918.17	1.52
1918.5	1.04
1918.84	1.4
1919.18	1.4
1919.52	1.28
1919.85	1
1920.19	1.04
1920.53	1.24
1920.87	2
1921.2	2.2
1921.54	2.24
1921.88	2
1922.21	1.8
1922.55	1.44
1922.89	1
1923.22	1.48
1923.56	2.52
1923.9	2.96
1924.23	3.12
1924.57	4.12
1924.91	3.56
1925.25	3.16
1925.58	4.16
1925.92	4
1926.26	3.8
1926.59	4.64
1926.93	4.88
1927.27	4.12
1927.6	4.96
1927.94	6.04
1928.28	5.44
1928.61	5.28
1928.95	5.76
1929.29	5.36
1929.62	4.12
1929.96	4.44
1930.29	6
1930.63	6.68
1930.97	7.96
1931.3	8.64
1931.64	9.24
1931.98	8.48
1932.31	7.12
1932.65	6.44
1932.99	6.92
1933.32	6.6
1933.66	7.24
1933.99	8.8
1934.33	9.24
1934.67	8.96
1935	10.88
1935.34	10.4
1935.67	10.32
1936.01	11.08
1936.35	12.88
1936.68	12.8
1937.02	14
1937.35	15.92
1937.69	15.08
1938.03	14.28
1938.36	12.12
1938.7	11.24
1939.03	9.92
1939.37	12.64
1939.7	13.08
1940.04	15.72
1940.38	17.76
1940.71	19.12
1941.05	18.76
1941.38	20.56
1941.72	21.36
1942.05	22.4
1942.39	23.12
1942.73	22.8
1943.06	21.24
1943.4	22.68
1943.73	22.72
1944.07	22.32
1944.4	24.56
1944.74	26.88
1945.07	26
1945.41	26.36
1945.74	28.16
1946.08	28.28
1946.42	29.2
1946.75	30.56
1947.09	32.16
1947.42	33.8
1947.76	33.2
1948.09	33.16
1948.43	33
1948.76	32.72
1949.1	32.88
1949.43	33.68
1949.77	32.76
1950.1	33.76
1950.44	34.44
1950.77	33.2
1951.11	33.08
1951.44	35.04
1951.78	35.36
1952.11	35.48
1952.45	38.12
1952.78	39
1953.12	38.64
1953.45	39
1953.79	40.24
1954.12	38.88
1954.46	39.48
1954.79	39.68
1955.12	39.48
1955.46	37.64
1955.79	37.8
1956.13	38.6
1956.46	40.36
1956.8	40.52
1957.13	44.32
1957.47	45.72
1957.8	45.32
1958.14	44.16
1958.47	46.04
1958.8	44.08
1959.14	41.96
1959.47	41.6
1959.81	41.96
1960.14	40.6
1960.48	41.92
1960.81	44.24
1961.14	45.68
1961.48	45.88
1961.81	48.16
1962.15	47.64
1962.48	48.32
1962.82	48.04
1963.15	50.6
1963.48	49.96
1963.82	48.44
1964.15	48.56
1964.49	49
1964.82	48.56
1965.15	48.64
1965.49	50.6
1965.82	50.72
1966.16	50.68
1966.49	49.4
1966.82	50.08
1967.16	48.44
1967.49	47.56
1967.83	47.4
1968.16	46.88
1968.49	46.4
1968.83	47.92
1969.16	48.72
1969.49	50.28
1969.83	49.56
1970.16	49.52
1970.49	49.32
1970.83	47.28
1971.16	46.52
1971.5	48.12
1971.83	47.68
1972.16	45.92
1972.5	46.32
1972.83	45.76
1973.16	44.84
1973.5	43.88
1973.83	44.88
1974.16	45.6
1974.5	44.72
1974.83	44.28
1975.16	44.36
1975.5	44.72
1975.83	44.56
1976.16	43.88
1976.49	44.6
1976.83	43.08
1977.16	41.56
1977.49	40.64
1977.83	41
1978.16	39.44
1978.49	40.84
1978.83	41.56
1979.16	40.96
1979.49	39.72
1979.83	39.28
1980.16	38.48
1980.49	36.24
1980.82	36
1981.16	35.32
1981.49	34.4
1981.82	32.8
1982.15	32.96
1982.49	32.6
1982.82	33.04
1983.15	31.52
1983.49	32.72
1983.82	32.68
1984.15	31.48
1984.48	29.56
1984.82	30.12
1985.15	28.2
1985.48	26.24
1985.81	26.56
1986.15	26.56
1986.48	26.32
1986.81	25.08
1987.14	24.92
1987.48	23.68
1987.81	22.44
1988.14	21.28
1988.47	22.52
1988.81	22.08
1989.14	19.24
1989.47	19.96
1989.8	21.84
1990.13	19.04
1990.47	18.2
1990.8	19.12
1991.13	16.96
1991.46	14.08
1991.79	14.04
1992.13	13.6
1992.46	13.28
1992.79	13.48
1993.12	13.16
1993.45	13.08
1993.79	11.68
1994.12	10.56
1994.45	10.28
1994.78	10.24
1995.11	9.44
1995.45	9.8
1995.78	9.56
1996.11	9.24
1996.44	8.32
1996.77	7.32
1997.1	6.64
1997.44	7.64
1997.77	7.08
1998.1	6.16
1998.43	6.36
1998.76	6.84
1999.09	4.84
1999.43	2.56
1999.76	2.56
2000.09	1.92
2000.42	0.88
2000.75	-0.76
2001.08	0.32
2001.41	0.6
2001.75	0.8
2002.08	0.96
2002.41	2.56
2002.74	2.76
2003.07	2.52
2003.4	2.16
2003.73	1.8
2004.06	1.48
2004.4	1.28
2004.73	0.72
2005.06	0.48
2005.39	0.76
2005.72	0.64
2006.05	0.8
2006.38	1.16
2006.71	1.8
2007.04	1.4
2007.37	1.32
2007.71	1.4
2008.04	0.88
2008.37	0.44
2008.7	0.8
2009.03	1.12
2009.36	0.84
2009.69	1.28
2010.02	1.28
2010.35	0.92
2010.68	0.6
2011.01	0.44
2011.34	0.24
2011.67	0.32
2012.01	0.36
2012.34	0.64
2012.67	0.92
2013	1.32
2013.33	1.8
2013.66	2
2013.99	1.92
2014.32	1.92
2014.65	1.28
2014.98	1.28
2015.31	1.04
2015.64	0.84
2015.97	0.8
2016.3	1.24
2016.63	0.68
2016.96	0.76
2017.29	0.24
2017.62	0.2
2017.95	0.04
2018.28	0.04
2018.61	0.16
2018.94	1
2019.27	1.08
2019.6	1
2019.93	1.24
2020.26	1.04
2020.59	0.72
2020.92	0.52
2021.25	0.32
2021.58	0.08
2021.91	0.12
2022.24	0.36
2022.57	0.4
2022.9	0.64
2023.23	0.96
2023.56	1.32
2023.89	1.44
2024.22	1.44
2024.55	1.2
2024.88	1.08
2025.21	0.96
2025.54	0.72
2025.87	0.8
2026.2	0.96
2026.53	1
2026.86	1.36
2027.19	1.52
2027.52	1.44
2027.85	1.28
2028.18	1.4
2028.51	1.28
2028.84	1.8
2029.16	2.32
2029.49	3.64
2029.82	3.68
2030.15	3.84
2030.48	3.24
2030.81	3.2
2031.14	2
2031.47	2.92
2031.8	3
2032.13	3.08
2032.46	3.36
2032.79	3.96
2033.12	3.12
2033.44	2.84
2033.77	3.24
2034.1	3.32
2034.43	3.44
2034.76	3.56
2035.09	4.36
2035.42	3.96
2035.75	4.44
2036.08	3.72
2036.41	4.4
2036.73	3.48
2037.06	4.08
2037.39	4
2037.72	4.16
2038.05	4.44
2038.38	4.52
2038.71	4.48
2039.04	2.88
2039.36	3.88
2039.69	2.48
2040.02	2
2040.35	2.2
2040.68	2.76
2041.01	2.12
2041.34	2.76
2041.66	3.96
2041.99	3.28
2042.32	3.76
2042.65	4.08
2042.98	4.32
2043.31	4.04
2043.63	4.04
2043.96	4.16
2044.29	4.08
2044.62	3.68
2044.95	3.52
2045.28	3.88
2045.6	4.04
2045.93	4.08
2046.26	4.12
2046.59	3.96
2046.92	4.08
2047.24	3.84
2047.57	3.52
2047.9	3.52
2048.23	4.36
2048.56	4.04
2048.88	4.4
2049.21	4.6
2049.54	4.16
2049.87	3.08
2050.2	2.84
2050.52	2.52
2050.85	2.16
2051.18	2.44
2051.51	2.84
2051.83	2.88
2052.16	2.72
2052.49	2.68
2052.82	2.56
2053.15	2.2
2053.47	2.2
2053.8	2.28
2054.13	2.84
2054.46	2.56
2054.78	2.96
2055.11	3.52
2055.44	3.16
2055.77	2.4
2056.09	2.48
2056.42	1.88
2056.75	2.12
2057.08	2.04
2057.4	2.16
2057.73	2.08
2058.06	2.28
2058.38	1.52
2058.71	1.16
2059.04	1.48
2059.37	1.6
2059.69	1.68
2060.02	1.4
2060.35	1.44
2060.67	0.8
2061	0.76
2061.33	0.12
2061.66	0.76
2061.98	1.08
2062.31	1.2
2062.64	1
2062.96	1.68
2063.29	1.16
2063.62	1.28
2063.94	1.24
2064.27	2.12
2064.6	0.88
2064.92	0.92
2065.25	0.48
2065.58	1.04
2065.91	0.16
2066.23	1.08
2066.56	0.84
2066.89	1
2067.21	0.4
2067.54	0.64
2067.87	0.56
2068.19	0.68
2068.52	0.68
2068.84	0.64
2069.17	0.64
2069.5	0.84
2069.82	0.52
2070.15	0.32
2070.48	0.32
2070.8	0.08
2071.13	-0.04
2071.46	0.32
2071.78	0.56
2072.11	0.76
2072.43	0.76
2072.76	0.88
2073.09	0.8
2073.41	0.56
2073.74	0.52
2074.07	0.52
2074.39	0.88
2074.72	0.8
2075.04	1.12
2075.37	1.16
2075.7	1.16
2076.02	0.52
2076.35	0.6
2076.67	0.76
2077	0.76
2077.33	0.84
2077.65	1.2
2077.98	1.12
2078.3	0.68
2078.63	0.68
2078.95	0.6
2079.28	0.36
2079.61	-0.2
2079.93	-0.12
2080.26	-0.16
2080.58	0.04
2080.91	0.08
2081.23	0.64
2081.56	0.56
2081.89	0.8
2082.21	0.6
2082.54	0.44
2082.86	0.52
2083.19	0.48
2083.51	0.36
2083.84	0.36
2084.16	0.36
2084.49	0.28
2084.81	0.32
2085.14	0.08
2085.46	0.16
2085.79	0.2
2086.12	0.52
2086.44	1.12
2086.77	1.12
2087.09	1.2
2087.42	1.16
2087.74	0.84
2088.07	0.2
2088.39	0.56
2088.72	0.6
2089.04	0.84
2089.37	0.96
2089.69	1.08
2090.02	0.68
2090.34	0.08
2090.67	-0.08
2090.99	-2.4
2091.32	-2.52
2091.64	-2.32
2091.97	-1.92
2092.29	-1.56
2092.62	0.8
2092.94	0.88
2093.26	0.84
2093.59	0.84
2093.91	-0.72
2094.24	-0.52
2094.56	0.12
2094.89	0.64
2095.21	0.64
2095.54	1.84
2095.86	1.52
2096.19	0.8
2096.51	0.24
2096.84	0.28
2097.16	0.2
2097.48	0.24
2097.81	0.64
2098.13	0.64
2098.46	0.2
2098.78	0.76
2099.11	0.68
2099.43	0.64
2099.75	0.6
2100.08	1
2100.4	0.56
2100.73	0.56
2101.05	0.2
2101.38	0.12
2101.7	0.8
2102.02	0.72
2102.35	1
2102.67	1.16
2103	1.2
2103.32	0.52
2103.64	0.6
2103.97	0.6
2104.29	0.64
2104.62	0.64
2104.94	0.64
2105.26	0.32
2105.59	0.16
2105.91	0.2
2106.23	0.48
2106.56	0.48
2106.88	0.68
2107.21	0.56
2107.53	0.32
2107.85	0.2
2108.18	0.52
2108.5	0.52
2108.82	0.52
2109.15	0.52
2109.47	0.84
2109.79	0.72
2110.12	0.76
2110.44	0.88
2110.76	1.04
2111.09	0.8
2111.41	0.68
2111.73	0.92
2112.06	0.92
2112.38	0.76
2112.7	0.12
2113.03	0.16
2113.35	0.2
2113.67	0.12
2114	0.12
2114.32	0.52
2114.64	0.52
2114.97	0.32
2115.29	0.4
2115.61	0.44
2115.94	0.4
2116.26	0.36
2116.58	0.24
2116.91	-0.8
2117.23	-0.72
2117.55	-0.56
2117.87	-0.16
2118.2	0.08
2118.52	1.08
2118.84	1.04
2119.17	0.88
2119.49	0.4
2119.81	0.16
2120.13	0.08
2120.46	0.12
2120.78	-0.68
2121.1	-0.68
2121.42	-0.68
2121.75	-0.68
2122.07	-0.72
2122.39	0.08
2122.72	0.12
2123.04	0.12
2123.36	0.12
2123.68	0.04
2124.01	0.16
2124.33	0.16
2124.65	0.16
2124.97	0.2
2125.29	0.36
2125.62	0.32
2125.94	0.28
2126.26	0.36
2126.58	0.68
2126.91	-0.48
2127.23	-0.56
2127.55	-0.24
2127.87	-0.12
2128.2	-0.16
2128.52	0.84
2128.84	0.96
2129.16	0.88
2129.48	1.08
2129.81	1.16
2130.13	1.24
2130.45	1.16
2130.77	0.92
2131.09	0.68
2131.42	0.28
2131.74	0.2
2132.06	0.2
2132.38	0.2
2132.7	0.04
2133.02	0.24
2133.35	0.32
2133.67	0.28
2133.99	0.48
2134.31	2.88669e-17
2134.63	-0.2
2134.96	-0.28
2135.28	-0.04
2135.6	-0.24
2135.92	0.24
2136.24	0.24
2136.56	0.28
2136.88	0.44
2137.21	0.48
2137.53	0.48
2137.85	0.48
2138.17	0.04
2138.49	-0.28
2138.81	-0.2
2139.13	-0.16
2139.46	-0.16
2139.78	0.24
2140.1	0.16
2140.42	0.28
2140.74	0.24
2141.06	0.28
2141.38	0.28
2141.7	0.4
2142.03	0.2
2142.35	0.72
2142.67	0.68
2142.99	0.68
2143.31	0.56
2143.63	0.64
2143.95	0.12
2144.27	0.32
2144.59	0.32
2144.91	0.16
2145.24	0.04
2145.56	0.04
2145.88	-0.16
2146.2	0.12
2146.52	0.28
2146.84	0.28
2147.16	0.28
2147.48	0.36
2147.8	0.08
2148.12	0.12
2148.44	0.12
2148.76	0.12
2149.08	0.04
2149.41	0.04
2149.73	0.08
2150.05	0.2
2150.37	0.2
2150.69	0.2
2151.01	0.36
2151.33	0.36
2151.65	0.24
2151.97	0.24
2152.29	0.24
2152.61	-0.28
2152.93	-0.36
2153.25	-0.12
2153.57	-0.04
2153.89	-0.04
2154.21	-0.04
2154.53	-0.04
2154.85	-0.28
2155.17	-0.12
2155.49	-0.32
2155.81	0.08
2156.13	0.12
2156.45	0.12
2156.77	-0.12
2157.09	0.12
2157.41	0.4
2157.73	0.36
2158.05	0.4
2158.37	0.4
2158.69	0.48
2159.01	0.16
2159.33	0.16
2159.65	0.28
2159.97	0.56
2160.29	0.48
2160.61	0.48
2160.93	0.48
2161.25	0.32
2161.57	0.36
2161.89	0.44
2162.21	0.44
2162.53	0.44
2162.85	-0.12
2163.17	-0.28
2163.49	-0.4
2163.81	-0.16
2164.13	-0.16
2164.45	-0.2
2164.77	-0.08
2165.08	-0.04
2165.4	-0.2
2165.72	-0.2
2166.04	0.52
2166.36	0.44
2166.68	0.44
2167	0.36
2167.32	0.48
2167.64	0.76
2167.96	0.56
2168.28	0.76
2168.6	1.08
2168.92	1.12
2169.24	0.88
2169.55	1.12
2169.87	0.88
2170.19	0.56
2170.51	0.6
2170.83	0.44
2171.15	0.2
2171.47	0.2
2171.79	0.2
2172.11	0.04
2172.43	0.04
2172.74	0.08
2173.06	0.08
2173.38	0.12
2173.7	0.08
2174.02	0.08
2174.34	0.16
2174.66	0.24
2174.98	0.2
2175.29	0.4
2175.61	0.52
2175.93	0.56
2176.25	0.52
2176.57	0.6
2176.89	0.56
2177.21	0.44
2177.52	0.32
2177.84	0.28
2178.16	0.32
2178.48	0.16
2178.8	0.52
2179.12	0.48
2179.43	0.48
2179.75	-0.64
2180.07	-0.48
2180.39	-0.76
2180.71	-0.76
2181.03	-0.76
2181.34	0.24
2181.66	0.08
2181.98	0.12
2182.3	0.48
2182.62	0.48
2182.93	0.08
2183.25	0.36
2183.57	0.24
2183.89	-0.12
2184.21	-0.12
2184.52	0.52
2184.84	0.4
2185.16	0.4
2185.48	0.4
2185.8	0.4
2186.11	0.16
2186.43	0
2186.75	0
2187.07	-0.4
2187.39	-1.16
2187.7	-1.08
2188.02	-1.52
2188.34	-1.52
2188.66	-1.12
2188.97	-0.32
2189.29	-0.4
2189.61	0.12
2189.93	0.12
2190.24	0.2
2190.56	0.24
2190.88	0.32
2191.2	0.24
2191.51	0.44
2191.83	0.48
2192.15	0.4
2192.47	0.4
2192.78	0.4
2193.1	0.24
2193.42	0.2
2193.74	0.2
2194.05	0.12
2194.37	0.32
2194.69	0.28
2195	-0.2
2195.32	-0.16
2195.64	-0.16
2195.96	-0.32
2196.27	-0.32
2196.59	-0.48
2196.91	-0.4
2197.22	-0.4
2197.54	-0.44
2197.86	-0.44
2198.18	0.12
2198.49	0
2198.81	0.12
2199.13	0.12
2199.44	0.44
2199.76	0.48
2200.08	0.6
2200.39	0.48
2200.71	0.48
2201.03	0.16
2201.34	0.12
2201.66	0.04
2201.98	0.04
2202.29	0.04
2202.61	0.04
2202.93	0.08
2203.24	0.04
2203.56	0.04
2203.88	0.16
2204.19	0.16
2204.51	0.12
2204.83	0.12
2205.14	0.12
2205.46	0.04
2205.78	0.16
2206.09	0.16
2206.41	0.2
2206.72	-2.77556e-17
2207.04	0.08
2207.36	-0.44
2207.67	-0.28
2207.99	-0.32
2208.31	-0.12
2208.62	-0.24
2208.94	0.16
2209.25	0
2209.57	0
2209.89	0.16
2210.2	0.16
2210.52	0.16
2210.83	0.16
2211.15	0.28
2211.47	0.12
2211.78	0.24
2212.1	-0.16
2212.41	0.04
2212.73	-0.08
2213.05	-0.04
2213.36	0.2
2213.68	0.6
2213.99	0.76
2214.31	0.76
2214.62	0.76
2214.94	0.8
2215.26	0.8
2215.57	0.76
2215.89	0.76
2216.2	0.72
2216.52	0.44
2216.83	0.44
2217.15	0.28
2217.46	0.28
2217.78	0.32
2218.1	0.08
2218.41	0.08
2218.73	-0.08
2219.04	-0.08
2219.36	-0.12
2219.67	0.12
2219.99	0.16
2220.3	0.24
2220.62	0.24
2220.93	0.36
2221.25	0.44
2221.56	0.4
2221.88	0.32
2222.19	0.52
2222.51	0.4
2222.82	-1.2
2223.14	-1.16
2223.45	-1.16
2223.77	-1.36
2224.08	-1.36
2224.4	0.08
2224.71	0.04
2225.03	0.04
2225.34	0.04
2225.66	-1.36
2225.97	-1.4
2226.29	-1.32
2226.6	-1.32
2226.92	-1.32
2227.23	0.2
2227.55	0.32
2227.86	0.64
2228.18	0.64
2228.49	1.12
2228.81	1.2
2229.12	1.08
2229.44	0.68
2229.75	0.68
2230.07	0.32
2230.38	0.12
2230.69	0.12
2231.01	0.12
2231.32	0.44
2231.64	0.4
2231.95	0.4
2232.27	0.72
2232.58	0.84
2232.9	0.68
2233.21	0.64
2233.52	0.92
2233.84	0.8
2234.15	0.68
2234.47	0.52
2234.78	0.48
2235.1	0.24
2235.41	0.16
2235.72	0.2
2236.04	0.48
2236.35	0.56
2236.67	-2.88398e-17
2236.98	0.08
2237.29	0.24
2237.61	-3.10861e-17
2237.92	-0.08
2238.24	0.56
2238.55	0.64
2238.86	0.56
2239.18	0.52
2239.49	-0.12
2239.8	-9.77002e-17
2240.12	0.32
2240.43	0.2
2240.75	0.2
2241.06	0.88
2241.37	0.76
2241.69	0.28
2242	0.28
2242.31	0.28
2242.63	0.28
2242.94	0.16
2243.26	-0.56
2243.57	-0.56
2243.88	-0.44
2244.2	-0.48
2244.51	-0.28
2244.82	0.32
2245.14	0.32
2245.45	0.32
2245.76	0.56
2246.08	0.36
2246.39	0.36
2246.7	0.48
2247.02	0.44
2247.33	0.2
2247.64	0.2
2247.96	0.2
2248.27	0.16
2248.58	-0.68
2248.9	-0.52
2249.21	-0.52
2249.52	-0.48
2249.83	-0.56
2250.15	0.2
2250.46	0.04
2250.77	0.04
2251.09	0
2251.4	0.32
2251.71	0.44
2252.03	0.76
2252.34	0.76
2252.65	0.76
2252.96	0.48
2253.28	0.36
2253.59	0.04
2253.9	0.12
2254.21	0.28
2254.53	0.36
2254.84	-0.04
2255.15	-0.04
2255.47	-0.12
2255.78	-0.28
2256.09	-0.4
2256.4	0
2256.72	0
2257.03	0.04
2257.34	0.04
2257.65	0.04
2257.97	0.04
2258.28	0.04
2258.59	0
2258.9	0
2259.22	0.04
2259.53	0.04
2259.84	0.16
2260.15	0.6
2260.46	0.6
2260.78	0.56
2261.09	0.56
2261.4	0.44
2261.71	0
2262.03	0.2
2262.34	0.2
2262.65	0.2
2262.96	0.24
2263.27	0.6
2263.59	0.4
2263.9	0.44
2264.21	0.44
2264.52	0.4
2264.83	0.04
2265.15	0.12
2265.46	0.32
2265.77	0.64
2266.08	0.64
2266.39	0.64
2266.7	0.68
2267.02	0.44
2267.33	-0.08
2267.64	-0.08
2267.95	-0.08
2268.26	-0.2
2268.57	-0.2
2268.89	0.24
2269.2	0.24
2269.51	0.24
2269.82	0.24
2270.13	0.24
2270.44	0.08
2270.76	-0.2
2271.07	-0.2
2271.38	-0.8
2271.69	-0.72
2272	-0.68
2272.31	-0.6
2272.62	-1.4
2272.93	-0.28
2273.25	-0.36
2273.56	-0.48
2273.87	-0.08
2274.18	0.72
2274.49	0.2
2274.8	0.2
2275.11	0.24
2275.42	0.04
2275.74	0.04
2276.05	0.12
2276.36	0.16
2276.67	0.12
2276.98	0.12
2277.29	0.2
2277.6	0.12
2277.91	0.08
2278.22	-0.32
2278.53	-0.32
2278.85	-0.4
2279.16	-1.36
2279.47	-1.24
2279.78	-0.76
2280.09	-0.72
2280.4	-0.72
2280.71	0.36
2281.02	0.36
2281.33	0.36
2281.64	0.32
2281.95	0.4
2282.26	0.28
2282.57	0.16
2282.88	0.08
2283.19	0.32
2283.5	0.4
2283.82	0.4
2284.13	0.44
2284.44	0.44
2284.75	-0.4
2285.06	-0.56
2285.37	-0.56
2285.68	-0.6
2285.99	-0.6
2286.3	0
2286.61	0.12
2286.92	0.12
2287.23	0.12
2287.54	0.16
2287.85	0.24
2288.16	0.12
2288.47	0.12
2288.78	0.12
2289.09	0.12
2289.4	0.04
2289.71	0.12
2290.02	0.12
2290.33	0.16
2290.64	0.12
2290.95	-0.08
2291.26	-0.16
2291.57	-0.16
2291.88	-0.48
2292.19	-0.24
2292.5	-0.04
2292.81	-0.04
2293.12	-0.04
2293.43	0.24
2293.74	0
2294.05	0
2294.36	0
2294.67	0
2294.98	0
2295.29	0
2295.6	0
2295.91	0
2296.21	0
2296.52	0
2296.83	0
2297.14	0
2297.45	0
2297.76	0
2298.07	0
2298.38	0
2298.69	0
2299	0
2299.31	0
2299.62	0
2299.93	0
2300.24	0
2300.55	0
2300.85	0
2301.16	0
2301.47	0
2301.78	0
2302.09	0
2302.4	0
2302.71	0
2303.02	0
2303.33	0
2303.64	0
2303.94	0
2304.25	0
2304.56	0
2304.87	0
2305.18	0
2305.49	0
2305.8	0
2306.11	0
2306.42	0
2306.72	0
2307.03	0
2307.34	0
2307.65	0
2307.96	0
2308.27	0
2308.58	0
2308.88	0
2309.19	0
2309.5	0
2309.81	0
2310.12	0
2310.43	0
2310.74	0
2311.04	0
2311.35	0
2311.66	0
2311.97	0
2312.28	0
2312.59	0
2312.89	0
2313.2	0
2313.51	0
2313.82	0
2314.13	0
2314.43	0
2314.74	0
2315.05	0
2315.36	0
2315.67	0
2315.97	0
2316.28	0
2316.59	0
2316.9	0
2317.21	0
2317.51	0
2317.82	0
2318.13	0
2318.44	0
2318.75	0
2319.05	0
2319.36	0
2319.67	0
2319.98	0
2320.28	0
2320.59	0
2320.9	0
2321.21	0
2321.51	0
2321.82	0
2322.13	0
2322.44	0
2322.74	0
2323.05	0
2323.36	0
2323.67	0
2323.97	0
2324.28	0
2324.59	0
2324.9	0
2325.2	0
2325.51	0
2325.82	0
2326.13	0
2326.43	0
2326.74	0
2327.05	0
2327.35	0
2327.66	0
2327.97	0
2328.27	0
2328.58	0
2328.89	0
2329.2	0
2329.5	0
2329.81	0
2330.12	0
2330.42	0
2330.73	0
2331.04	0
2331.34	0
2331.65	0
2331.96	0
2332.26	0
2332.57	0
2332.88	0
2333.18	0
2333.49	0
2333.8	0
2334.1	0
2334.41	0
2334.72	0
2335.02	0
2335.33	0
2335.64	0
2335.94	0
2336.25	0
2336.56	0
2336.86	0
2337.17	0
2337.48	0
2337.78	0
2338.09	0
2338.39	0
2338.7	0
2339.01	0
2339.31	0
2339.62	0
2339.93	0
2340.23	0
2340.54	0
2340.84	0
2341.15	0
2341.46	0
2341.76	0
2342.07	0
2342.37	0
2342.68	0
2342.99	0
2343.29	0
2343.6	0
2343.9	0
2344.21	0
2344.51	0
2344.82	0
2345.13	0
2345.43	0
2345.74	0
2346.04	0
2346.35	0
2346.65	0
2346.96	0
2347.27	0
2347.57	0
2347.88	0
2348.18	0
2348.49	0
2348.79	0
2349.1	0
2349.4	0
2349.71	0
2350.01	0
2350.32	0
2350.63	0
2350.93	0
2351.24	0
2351.54	0
2351.85	0
2352.15	0
2352.46	0
2352.76	0
2353.07	0
2353.37	0
2353.68	0
2353.98	0
2354.29	0
2354.59	0
2354.9	0
2355.2	0
2355.51	0
2355.81	0
2356.12	0
2356.42	0
2356.73	0
2357.03	0
2357.34	0
2357.64	0
2357.95	0
2358.25	0
2358.55	0
2358.86	0
2359.16	0
2359.47	0
2359.77	0
2360.08	0
2360.38	0
2360.69	0
2360.99	0
2361.3	0
2361.6	0
2361.9	0
2362.21	0
2362.51	0
2362.82	0
2363.12	0
2363.43	0
2363.73	0
2364.04	0
2364.34	0
2364.64	0
2364.95	0
2365.25	0
2365.56	0
2365.86	0
2366.16	0
2366.47	0
2366.77	0
2367.08	0
2367.38	0
2367.68	0
2367.99	0
2368.29	0
2368.6	0
2368.9	0
2369.2	0
2369.51	0
2369.81	0
2370.12	0
2370.42	0
2370.72	0
2371.03	0
2371.33	0
2371.63	0
2371.94	0
2372.24	0
2372.55	0
2372.85	0
2373.15	0
2373.46	0
2373.76	0
2374.06	0
2374.37	0
2374.67	0
2374.97	0
2375.28	0
2375.58	0
2375.88	0
2376.19	0
2376.49	0
2376.79	0
2377.1	0
2377.4	0
2377.7	0
2378.01	0
2378.31	0
2378.61	0
2378.92	0
2379.22	0
2379.52	0
2379.82	0
2380.13	0
2380.43	0
2380.73	0
2381.04	0
2381.34	0
2381.64	0
2381.95	0
2382.25	0
2382.55	0
2382.85	0
2383.16	0
2383.46	0
2383.76	0
2384.06	0
2384.37	0
2384.67	0
2384.97	0
2385.28	0
2385.58	0
2385.88	0
2386.18	0
2386.49	0
2386.79	0
2387.09	0
2387.39	0
2387.69	0
2388	0
2388.3	0
2388.6	0
2388.9	0
2389.21	0
2389.51	0
2389.81	0
2390.11	0
2390.42	0
2390.72	0
2391.02	0
2391.32	0
2391.62	0
2391.93	0
2392.23	0
2392.53	0
2392.83	0
2393.13	0
2393.44	0
2393.74	0
2394.04	0
2394.34	0
2394.64	0
2394.95	0
2395.25	0
2395.55	0
2395.85	0
2396.15	0
2396.45	0
2396.76	0
2397.06	0
2397.36	0
2397.66	0
2397.96	0
2398.26	0
2398.57	0
2398.87	0
2399.17	0
2399.47	0
2399.77	0
2400.07	0
2400.37	0
2400.68	0
2400.98	0
2401.28	0
2401.58	0
2401.88	0
2402.18	0
2402.48	0
2402.79	0
2403.09	0
2403.39	0
2403.69	0
2403.99	0
2404.29	0
2404.59	0
2404.89	0
2405.19	0
2405.5	0
2405.8	0
2406.1	0
2406.4	0
2406.7	0
2407	0
2407.3	0
2407.6	0
2407.9	0
2408.2	0
2408.5	0
2408.8	0
2409.11	0
2409.41	0
2409.71	0
2410.01	0
2410.31	0
2410.61	0
2410.91	0
2411.21	0
2411.51	0
2411.81	0
2412.11	0
2412.41	0
2412.71	0
2413.01	0
2413.31	0
2413.61	0
2413.91	0
2414.21	0
2414.51	0
2414.81	0
2415.12	0
2415.42	0
2415.72	0
2416.02	0
2416.32	0
2416.62	0
2416.92	0
2417.22	0
2417.52	0
2417.82	0
2418.12	0
2418.42	0
2418.72	0
2419.02	0
2419.32	0
2419.62	0
2419.92	0
2420.22	0
2420.52	0
2420.82	0
2421.12	0
2421.42	0
2421.71	0
2422.01	0
2422.31	0
2422.61	0
2422.91	0
2423.21	0
2423.51	0
2423.81	0
2424.11	0
2424.41	0
2424.71	0
2425.01	0
2425.31	0
2425.61	0
2425.91	0
2426.21	0
2426.51	0
2426.81	0
2427.11	0
2427.41	0
2427.7	0
2428	0
2428.3	0
2428.6	0
2428.9	0
2429.2	0
2429.5	0
2429.8	0
2430.1	0
2430.4	0
2430.7	0
2430.99	0
2431.29	0
2431.59	0
2431.89	0
2432.19	0
2432.49	0
2432.79	0
2433.09	0
2433.39	0
2433.68	0
2433.98	0
2434.28	0
2434.58	0
2434.88	0
2435.18	0
2435.48	0
2435.78	0
2436.07	0
2436.37	0
2436.67	0
2436.97	0
2437.27	0
2437.57	0
2437.86	0
2438.16	0
2438.46	0
2438.76	0
2439.06	0
2439.36	0
2439.66	0
2439.95	0
2440.25	0
2440.55	0
2440.85	0
2441.15	0
2441.44	0
2441.74	0
2442.04	0
2442.34	0
2442.64	0
2442.93	0
2443.23	0
2443.53	0
2443.83	0
2444.13	0
2444.42	0
2444.72	0
2445.02	0
2445.32	0
2445.62	0
2445.91	0
2446.21	0
2446.51	0
2446.81	0
2447.1	0
2447.4	0
2447.7	0
2448	0
2448.3	0
2448.59	0
2448.89	0
2449.19	0
2449.49	0
2449.78	0
2450.08	0
2450.38	0
2450.68	0
2450.97	0
2451.27	0
2451.57	0
2451.87	0
2452.16	0
2452.46	0
2452.76	0
2453.05	0
2453.35	0
2453.65	0
2453.95	0
2454.24	0
2454.54	0
2454.84	0
2455.13	0
2455.43	0
2455.73	0
2456.03	0
2456.32	0
2456.62	0
2456.92	0
2457.21	0
2457.51	0
2457.81	0
2458.1	0
2458.4	0
2458.7	0
2458.99	0
2459.29	0
2459.59	0
2459.88	0
2460.18	0
2460.48	0
2460.77	0
2461.07	0
2461.37	0
2461.66	0
2461.96	0
2462.26	0
2462.55	0
2462.85	0
2463.15	0
2463.44	0
2463.74	0
2464.04	0
2464.33	0
2464.63	0
2464.92	0
2465.22	0
2465.52	0
2465.81	0
2466.11	0
2466.41	0
2466.7	0
2467	0
2467.29	0
2467.59	0
2467.89	0
2468.18	0
2468.48	0
2468.77	0
2469.07	0
2469.37	0
2469.66	0
2469.96	0
2470.25	0
2470.55	0
2470.84	0
2471.14	0
2471.44	0
2471.73	0
2472.03	0
2472.32	0
2472.62	0
2472.91	0
2473.21	0
2473.51	0
2473.8	0
2474.1	0
2474.39	0
2474.69	0
2474.98	0
2475.28	0
2475.57	0
2475.87	0
2476.17	0
2476.46	0
2476.76	0
2477.05	0
2477.35	0
2477.64	0
2477.94	0
2478.23	0
2478.53	0
2478.82	0
2479.12	0
2479.41	0
2479.71	0
2480	0
2480.3	0
2480.59	0
2480.89	0
2481.18	0
2481.48	0
2481.77	0
2482.07	0
2482.36	0
2482.66	0
2482.95	0
2483.25	0
2483.54	0
2483.84	0
2484.13	0
2484.43	0
2484.72	0
2485.02	0
2485.31	0
2485.6	0
2485.9	0
2486.19	0
2486.49	0
2486.78	0
2487.08	0
2487.37	0
2487.67	0
2487.96	0
2488.26	0
2488.55	0
2488.84	0
2489.14	0
2489.43	0
2489.73	0
2490.02	0
2490.32	0
2490.61	0
2490.9	0
2491.2	0
2491.49	0
2491.79	0
2492.08	0
2492.37	0
2492.67	0
2492.96	0
2493.26	0
2493.55	0
2493.84	0
2494.14	0
2494.43	0
2494.73	0
2495.02	0
2495.31	0
2495.61	0
2495.9	0
2496.2	0
2496.49	0
2496.78	0
2497.08	0
2497.37	0
2497.66	0
2497.96	0
2498.25	0
2498.54	0
2498.84	0
2499.13	0
2499.43	0
2499.72	0
2500.01	0
2500.31	0
2500.6	0
2500.89	0
2501.19	0
2501.48	0
2501.77	0
2502.07	0
2502.36	0
2502.65	0
2502.95	0
2503.24	0
2503.53	0
2503.82	0
2504.12	0
2504.41	0
2504.7	0
2505	0
2505.29	0
2505.58	0
2505.88	0
2506.17	0
2506.46	0
2506.76	0
2507.05	0
2507.34	0
2507.63	0
2507.93	0
2508.22	0
2508.51	0
2508.8	0
2509.1	0
2509.39	0
2509.68	0
2509.98	0
2510.27	0
2510.56	0
2510.85	0
2511.15	0
2511.44	0
2511.73	0
2512.02	0
2512.32	0
2512.61	0
2512.9	0
2513.19	0
2513.49	0
2513.78	0
2514.07	0
2514.36	0
2514.65	0
2514.95	0
2515.24	0
2515.53	0
2515.82	0
2516.12	0
2516.41	0
2516.7	0
2516.99	0
2517.28	0
2517.58	0
2517.87	0
2518.16	0
2518.45	0
2518.74	0
2519.04	0
2519.33	0
2519.62	0
2519.91	0
2520.2	0
2520.5	0
2520.79	0
2521.08	0
2521.37	0
2521.66	0
2521.95	0
2522.25	0
2522.54	0
2522.83	0
2523.12	0
2523.41	0
2523.7	0
2523.99	0
2524.29	0
2524.58	0
2524.87	0
2525.16	0
2525.45	0
2525.74	0
2526.03	0
2526.33	0
2526.62	0
2526.91	0
2527.2	0
2527.49	0
2527.78	0
2528.07	0
2528.36	0
2528.66	0
2528.95	0
2529.24	0
2529.53	0
2529.82	0
2530.11	0
2530.4	0
2530.69	0
2530.98	0
2531.27	0
2531.57	0
2531.86	0
2532.15	0
2532.44	0
2532.73	0
2533.02	0
2533.31	0
2533.6	0
2533.89	0
2534.18	0
2534.47	0
2534.76	0
2535.05	0
2535.35	0
2535.64	0
2535.93	0
2536.22	0
2536.51	0
2536.8	0
2537.09	0
2537.38	0
2537.67	0
2537.96	0
2538.25	0
2538.54	0
2538.83	0
2539.12	0
2539.41	0
2539.7	0
2539.99	0
2540.28	0
2540.57	0
2540.86	0
2541.15	0
2541.44	0
2541.73	0
2542.02	0
2542.31	0
2542.6	0
2542.89	0
2543.18	0
2543.47	0
2543.76	0
2544.05	0
2544.34	0
2544.63	0
2544.92	0
2545.21	0
2545.5	0
2545.79	0
2546.08	0
2546.37	0
2546.66	0
2546.95	0
2547.24	0
2547.53	0
2547.82	0
2548.11	0
2548.4	0
2548.69	0
2548.98	0
2549.27	0
2549.55	0
2549.84	0
2550.13	0
2550.42	0
2550.71	0
2551	0
2551.29	0
2551.58	0
2551.87	0
2552.16	0
2552.45	0
2552.74	0
2553.03	0
2553.31	0
2553.6	0
2553.89	0
2554.18	0
2554.47	0
2554.76	0
2555.05	0
2555.34	0
2555.63	0
2555.92	0
2556.2	0
2556.49	0
2556.78	0
2557.07	0
2557.36	0
2557.65	0
2557.94	0
2558.23	0
2558.51	0
2558.8	0
2559.09	0
2559.38	0
2559.67	0
2559.96	0
2560.25	0
2560.53	0
2560.82	0
2561.11	0
2561.4	0
2561.69	0
2561.98	0
2562.27	0
2562.55	0
2562.84	0
2563.13	0
2563.42	0
2563.71	0
2564	0
2564.28	0
2564.57	0
2564.86	0
2565.15	0
2565.44	0
2565.72	0
2566.01	0
2566.3	0
2566.59	0
2566.88	0
2567.16	0
2567.45	0
2567.74	0
2568.03	0
2568.32	0
2568.6	0
2568.89	0
2569.18	0
2569.47	0
2569.75	0

