Source: Spectrum Viewer

Chart: Pulse Spectrum

Series: 
Wavelength (nm)	S (a.u.)
1179.9	0
1180.29	0
1180.68	0
1181.06	0
1181.45	0
1181.83	0
1182.22	0
1182.6	0
1182.99	0
1183.38	0
1183.76	0
1184.15	0
1184.53	0
1184.92	0
1185.3	0
1185.69	0
1186.07	0
1186.46	0
1186.85	0
1187.23	0
1187.62	0
1188	0
1188.39	0
1188.77	0
1189.16	0
1189.54	0
1189.93	0
1190.31	0
1190.7	0
1191.08	0
1191.47	0
1191.85	0
1192.24	0
1192.62	0
1193.01	0
1193.39	0
1193.78	0
1194.16	0
1194.55	0
1194.93	0
1195.32	0
1195.7	0
1196.09	0
1196.47	0
1196.86	0
1197.24	0
1197.63	0
1198.01	0
1198.4	0
1198.78	0
1199.16	0
1199.55	0
1199.93	0
1200.32	0
1200.7	0
1201.09	0
1201.47	0
1201.86	0
1202.24	0
1202.63	0
1203.01	0
1203.39	0
1203.78	0
1204.16	0
1204.55	0
1204.93	0
1205.32	0
1205.7	0
1206.08	0
1206.47	0
1206.85	0
1207.24	0
1207.62	0
1208	0
1208.39	0
1208.77	0
1209.16	0
1209.54	0
1209.92	0
1210.31	0
1210.69	0
1211.08	0
1211.46	0
1211.84	0
1212.23	0
1212.61	0
1213	0
1213.38	0
1213.76	0
1214.15	0
1214.53	0
1214.91	0
1215.3	0
1215.68	0
1216.06	0
1216.45	0
1216.83	0
1217.22	0
1217.6	0
1217.98	0
1218.37	0
1218.75	0
1219.13	0
1219.52	0
1219.9	0
1220.28	0
1220.67	0
1221.05	0
1221.43	0
1221.82	0
1222.2	0
1222.58	0
1222.97	0
1223.35	0
1223.73	0
1224.11	0
1224.5	0
1224.88	0
1225.26	0
1225.65	0
1226.03	0
1226.41	0
1226.8	0
1227.18	0
1227.56	0
1227.94	0
1228.33	0
1228.71	0
1229.09	0
1229.47	0
1229.86	0
1230.24	0
1230.62	0
1231.01	0
1231.39	0
1231.77	0
1232.15	0
1232.54	0
1232.92	0
1233.3	0
1233.68	0
1234.07	0
1234.45	0
1234.83	0
1235.21	0
1235.6	0
1235.98	0
1236.36	0
1236.74	0
1237.12	0
1237.51	0
1237.89	0
1238.27	0
1238.65	0
1239.04	0
1239.42	0
1239.8	0
1240.18	0
1240.56	0
1240.95	0
1241.33	0
1241.71	0
1242.09	0
1242.47	0
1242.86	0
1243.24	0
1243.62	0
1244	0
1244.38	0
1244.77	0
1245.15	0
1245.53	0
1245.91	0
1246.29	0
1246.67	0
1247.06	0
1247.44	0
1247.82	0
1248.2	0
1248.58	0
1248.96	0
1249.34	0
1249.73	0
1250.11	0
1250.49	0
1250.87	0
1251.25	0
1251.63	0
1252.01	0
1252.4	0
1252.78	0
1253.16	0
1253.54	0
1253.92	0
1254.3	0
1254.68	0
1255.06	0
1255.45	0
1255.83	0
1256.21	0
1256.59	0
1256.97	0
1257.35	0
1257.73	0
1258.11	0
1258.49	0
1258.87	0
1259.26	0
1259.64	0
1260.02	0
1260.4	0
1260.78	0
1261.16	0
1261.54	0
1261.92	0
1262.3	0
1262.68	0
1263.06	0
1263.44	0
1263.82	0
1264.21	0
1264.59	0
1264.97	0
1265.35	0
1265.73	0
1266.11	0
1266.49	0
1266.87	0
1267.25	0
1267.63	0
1268.01	0
1268.39	0
1268.77	0
1269.15	0
1269.53	0
1269.91	0
1270.29	0
1270.67	0
1271.05	0
1271.43	0
1271.81	0
1272.19	0
1272.57	0
1272.95	0
1273.33	0
1273.71	0
1274.09	0
1274.47	0
1274.85	0
1275.23	0
1275.61	0
1275.99	0
1276.37	0
1276.75	0
1277.13	0
1277.51	0
1277.89	0
1278.27	0
1278.65	0
1279.03	0
1279.41	0
1279.79	0
1280.17	0
1280.55	0
1280.93	0
1281.31	0
1281.69	0
1282.07	0
1282.45	0
1282.82	0
1283.2	0
1283.58	0
1283.96	0
1284.34	0
1284.72	0
1285.1	0
1285.48	0
1285.86	0
1286.24	0
1286.62	0
1287	0
1287.38	0
1287.75	0
1288.13	0
1288.51	0
1288.89	0
1289.27	0
1289.65	0
1290.03	0
1290.41	0
1290.79	0
1291.17	0
1291.54	0
1291.92	0
1292.3	0
1292.68	0
1293.06	0
1293.44	0
1293.82	0
1294.2	0
1294.57	0
1294.95	0
1295.33	0
1295.71	0
1296.09	0
1296.47	0
1296.85	0
1297.22	0
1297.6	0
1297.98	0
1298.36	0
1298.74	0
1299.12	0
1299.5	0
1299.87	0
1300.25	0
1300.63	0
1301.01	0
1301.39	0
1301.77	0
1302.14	0
1302.52	0
1302.9	0
1303.28	0
1303.66	0
1304.03	0
1304.41	0
1304.79	0
1305.17	0
1305.55	0
1305.92	0
1306.3	0
1306.68	0
1307.06	0
1307.44	0
1307.81	0
1308.19	0
1308.57	0
1308.95	0
1309.32	0
1309.7	0
1310.08	0
1310.46	0
1310.84	0
1311.21	0
1311.59	0
1311.97	0
1312.35	0
1312.72	0
1313.1	0
1313.48	0
1313.86	0
1314.23	0
1314.61	0
1314.99	0
1315.37	0
1315.74	0
1316.12	0
1316.5	0
1316.87	0
1317.25	0
1317.63	0
1318.01	0
1318.38	0
1318.76	0
1319.14	0
1319.52	0
1319.89	0
1320.27	0
1320.65	0
1321.02	0
1321.4	0
1321.78	0
1322.15	0
1322.53	0
1322.91	0
1323.29	0
1323.66	0
1324.04	0
1324.42	0
1324.79	0
1325.17	0
1325.55	0
1325.92	0
1326.3	0
1326.68	0
1327.05	0
1327.43	0
1327.81	0
1328.18	0
1328.56	0
1328.94	0
1329.31	0
1329.69	0
1330.06	0
1330.44	0
1330.82	0
1331.19	0
1331.57	0
1331.95	0
1332.32	0
1332.7	0
1333.08	0
1333.45	0
1333.83	0
1334.2	0
1334.58	0
1334.96	0
1335.33	0
1335.71	0
1336.08	0
1336.46	0
1336.84	0
1337.21	0
1337.59	0
1337.96	0
1338.34	0
1338.72	0
1339.09	0
1339.47	0
1339.84	0
1340.22	0
1340.6	0
1340.97	0
1341.35	0
1341.72	0
1342.1	0
1342.47	0
1342.85	0
1343.23	0
1343.6	0
1343.98	0
1344.35	0
1344.73	0
1345.1	0
1345.48	0
1345.85	0
1346.23	0
1346.61	0
1346.98	0
1347.36	0
1347.73	0
1348.11	0
1348.48	0
1348.86	0
1349.23	0
1349.61	0
1349.98	0
1350.36	0
1350.73	0
1351.11	0
1351.48	0
1351.86	0
1352.23	0
1352.61	0
1352.98	0
1353.36	0
1353.73	0
1354.11	0
1354.48	0
1354.86	0
1355.23	0
1355.61	0
1355.98	0
1356.36	0
1356.73	0
1357.11	0
1357.48	0
1357.86	0
1358.23	0
1358.61	0
1358.98	0
1359.35	0
1359.73	0
1360.1	0
1360.48	0
1360.85	0
1361.23	0
1361.6	0
1361.98	0
1362.35	0
1362.72	0
1363.1	0
1363.47	0
1363.85	0
1364.22	0
1364.6	0
1364.97	0
1365.34	0
1365.72	0
1366.09	0
1366.47	0
1366.84	0
1367.22	0
1367.59	0
1367.96	0
1368.34	0
1368.71	0
1369.09	0
1369.46	-1
1369.83	-1
1370.21	-1
1370.58	-0.92
1370.96	-0.92
1371.33	0.08
1371.7	0.08
1372.08	0.08
1372.45	0
1372.82	0
1373.2	0
1373.57	0
1373.95	0
1374.32	0
1374.69	0
1375.07	0
1375.44	0
1375.81	0.16
1376.19	0.16
1376.56	0.16
1376.93	0.16
1377.31	0.16
1377.68	0
1378.05	0
1378.43	0
1378.8	0
1379.17	0
1379.55	0
1379.92	0
1380.29	0
1380.67	0
1381.04	0
1381.41	0
1381.79	0
1382.16	0
1382.53	0
1382.91	-1
1383.28	-0.88
1383.65	-0.88
1384.03	-0.88
1384.4	-0.88
1384.77	0.12
1385.14	0
1385.52	0
1385.89	0.04
1386.26	0.04
1386.64	0.08
1387.01	0.08
1387.38	0.24
1387.75	0.2
1388.13	0.2
1388.5	0.16
1388.87	0.28
1389.25	0.12
1389.62	-0.08
1389.99	-0.28
1390.36	-0.24
1390.74	-0.36
1391.11	-0.36
1391.48	-0.16
1391.85	0.08
1392.23	0.08
1392.6	0.08
1392.97	0.08
1393.34	0.08
1393.72	0.04
1394.09	0
1394.46	0.08
1394.83	0.08
1395.21	0.08
1395.58	0.08
1395.95	0.08
1396.32	0
1396.69	0
1397.07	0
1397.44	0
1397.81	0
1398.18	0
1398.55	0.04
1398.93	0.04
1399.3	0.04
1399.67	0.12
1400.04	0.12
1400.41	0.08
1400.79	0.08
1401.16	0.32
1401.53	0.44
1401.9	0.52
1402.27	0.52
1402.65	0.52
1403.02	0.28
1403.39	0.08
1403.76	-0.4
1404.13	-0.4
1404.51	-0.4
1404.88	-0.4
1405.25	-0.4
1405.62	0
1405.99	0
1406.36	0
1406.74	0
1407.11	0.2
1407.48	0.2
1407.85	-1
1408.22	-1
1408.59	-0.96
1408.96	-1.16
1409.34	-1.16
1409.71	0.04
1410.08	0.04
1410.45	0
1410.82	0.04
1411.19	0.04
1411.56	0.04
1411.93	0.04
1412.31	0.04
1412.68	0.12
1413.05	0.32
1413.42	0.44
1413.79	0.44
1414.16	0.28
1414.53	0.16
1414.9	-0.24
1415.27	-0.32
1415.65	-0.16
1416.02	1.44334e-17
1416.39	1.44334e-17
1416.76	0.2
1417.13	0.16
1417.5	0.16
1417.87	0.24
1418.24	0.24
1418.61	0.48
1418.98	0.52
1419.35	0.36
1419.73	0.36
1420.1	0.36
1420.47	0.24
1420.84	0.2
1421.21	0.2
1421.58	0.12
1421.95	0.12
1422.32	0
1422.69	0
1423.06	0.12
1423.43	0.16
1423.8	0.16
1424.17	0.16
1424.54	0.36
1424.91	0.32
1425.28	0.32
1425.65	0.32
1426.02	0.32
1426.39	0.28
1426.76	-0.36
1427.14	-0.4
1427.51	-0.4
1427.88	-0.16
1428.25	-0.32
1428.62	0.24
1428.99	0.24
1429.36	0.24
1429.73	0.04
1430.1	0.04
1430.47	0.04
1430.84	0.44
1431.21	0.52
1431.58	0.48
1431.95	0.48
1432.32	0.28
1432.69	-0.12
1433.06	-0.08
1433.43	-0.08
1433.8	-0.08
1434.17	0.12
1434.54	0.12
1434.91	0
1435.28	0.12
1435.64	0.12
1436.01	-0.48
1436.38	-0.16
1436.75	-0.16
1437.12	-0.28
1437.49	-0.24
1437.86	0.36
1438.23	0.12
1438.6	0.12
1438.97	0.12
1439.34	0.08
1439.71	0.08
1440.08	0
1440.45	0
1440.82	-0.6
1441.19	-0.6
1441.56	-0.4
1441.93	-0.12
1442.3	-7.66057e-17
1442.67	-1
1443.03	-1
1443.4	-1.2
1443.77	-1.48
1444.14	-1.6
1444.51	0
1444.88	0.04
1445.25	0.08
1445.62	0.08
1445.99	0.08
1446.36	0.08
1446.73	0.04
1447.09	0
1447.46	0.04
1447.83	0.04
1448.2	0.32
1448.57	0.12
1448.94	0.12
1449.31	0.08
1449.68	0.08
1450.05	-0.2
1450.41	0
1450.78	-0.36
1451.15	-0.36
1451.52	-0.36
1451.89	-0.36
1452.26	-0.36
1452.63	0.04
1453	0.04
1453.36	0.24
1453.73	0.24
1454.1	0.24
1454.47	0.2
1454.84	0.2
1455.21	0
1455.57	-0.4
1455.94	-0.32
1456.31	-0.32
1456.68	-0.32
1457.05	-0.32
1457.42	0.08
1457.78	0
1458.15	0
1458.52	0
1458.89	0.04
1459.26	0.04
1459.63	0.04
1459.99	0.04
1460.36	0.08
1460.73	0.12
1461.1	0.2
1461.47	0.2
1461.83	0.4
1462.2	0.4
1462.57	0.32
1462.94	0.48
1463.31	0.48
1463.67	0.28
1464.04	0.04
1464.41	0.08
1464.78	-0.76
1465.15	-0.68
1465.51	-0.68
1465.88	-0.48
1466.25	-0.52
1466.62	0.08
1466.98	0
1467.35	0.12
1467.72	0.12
1468.09	0.12
1468.46	0.12
1468.82	0.12
1469.19	0
1469.56	0
1469.93	0.08
1470.29	0.16
1470.66	0.16
1471.03	0.16
1471.4	0.2
1471.76	0.12
1472.13	0.04
1472.5	0.04
1472.86	0.04
1473.23	0
1473.6	0
1473.97	0
1474.33	0
1474.7	0.16
1475.07	0.16
1475.44	0.2
1475.8	2.77556e-17
1476.17	2.77556e-17
1476.54	-0.16
1476.9	-0.04
1477.27	-0.08
1477.64	0.12
1478	0.12
1478.37	0.12
1478.74	0
1479.11	0.08
1479.47	0.36
1479.84	0.36
1480.21	0.36
1480.57	0.4
1480.94	0.36
1481.31	0.08
1481.67	0.08
1482.04	0.08
1482.41	0.04
1482.77	0.04
1483.14	0.04
1483.51	0.04
1483.87	0.04
1484.24	0.04
1484.61	0.04
1484.97	0.2
1485.34	0.2
1485.71	-0.8
1486.07	-0.8
1486.44	-0.84
1486.81	-1
1487.17	-1
1487.54	0
1487.9	0
1488.27	0
1488.64	-0.2
1489	-0.2
1489.37	-0.2
1489.74	-0.2
1490.1	-0.2
1490.47	0
1490.83	0
1491.2	0.2
1491.57	0.2
1491.93	0.2
1492.3	0.28
1492.66	0.44
1493.03	0.24
1493.4	0.24
1493.76	0.56
1494.13	0.56
1494.49	0.4
1494.86	0.4
1495.23	0.6
1495.59	0.28
1495.96	-1.2
1496.32	-1.2
1496.69	-1.2
1497.06	-1.4
1497.42	-2.2
1497.79	-0.72
1498.15	-0.72
1498.52	-0.68
1498.88	-0.56
1499.25	0.24
1499.62	-0.16
1499.98	-0.16
1500.35	-0.2
1500.71	-0.16
1501.08	-0.16
1501.44	0.16
1501.81	0.16
1502.17	0.16
1502.54	0
1502.9	0
1503.27	0
1503.64	0
1504	0.24
1504.37	0.24
1504.73	0.24
1505.1	0.28
1505.46	0.28
1505.83	0.04
1506.19	0.04
1506.56	0.04
1506.92	0
1507.29	0
1507.65	0.16
1508.02	0.16
1508.38	0.16
1508.75	0.16
1509.11	0.24
1509.48	0.08
1509.84	0.08
1510.21	0.08
1510.57	0.12
1510.94	0.04
1511.3	0.04
1511.67	0.04
1512.03	0.04
1512.4	0
1512.76	0
1513.13	-0.92
1513.49	-1.08
1513.85	-1.08
1514.22	-1.08
1514.58	-1.08
1514.95	-0.16
1515.31	0
1515.68	0
1516.04	0.04
1516.41	0.12
1516.77	0.12
1517.14	0.12
1517.5	0.12
1517.86	0.08
1518.23	0
1518.59	0.08
1518.96	0.08
1519.32	0.12
1519.69	0.12
1520.05	0.12
1520.41	0.04
1520.78	0.04
1521.14	0.04
1521.51	0.12
1521.87	0.12
1522.24	0.12
1522.6	0.12
1522.96	0.08
1523.33	0
1523.69	0
1524.06	0.08
1524.42	0.2
1524.78	0.2
1525.15	0.2
1525.51	0.2
1525.88	0.12
1526.24	0
1526.6	0
1526.97	0
1527.33	0.24
1527.69	0.32
1528.06	0.44
1528.42	0.6
1528.79	0.6
1529.15	-0.44
1529.51	-0.48
1529.88	-0.6
1530.24	-0.6
1530.6	-0.6
1530.97	0.2
1531.33	0.16
1531.69	0.16
1532.06	0
1532.42	0
1532.78	0
1533.15	0.12
1533.51	0.12
1533.87	0.12
1534.24	0.12
1534.6	0.2
1534.96	0.24
1535.33	0.24
1535.69	0.24
1536.05	0.32
1536.42	0.28
1536.78	0.12
1537.14	0.12
1537.51	0.28
1537.87	0.2
1538.23	0.16
1538.6	0.16
1538.96	0.16
1539.32	0.2
1539.68	0.2
1540.05	0.2
1540.41	0.24
1540.77	0.24
1541.14	0.04
1541.5	0.08
1541.86	0.12
1542.23	0.2
1542.59	0.44
1542.95	0.52
1543.31	0.48
1543.68	0.64
1544.04	0.56
1544.4	0.32
1544.76	0.52
1545.13	0.56
1545.49	0.36
1545.85	0.32
1546.21	0.56
1546.58	0.28
1546.94	0.24
1547.3	0.44
1547.66	0.44
1548.03	0.24
1548.39	0.24
1548.75	0.24
1549.11	0.08
1549.48	0.08
1549.84	0.04
1550.2	0.04
1550.56	0.28
1550.93	0.24
1551.29	0.32
1551.65	0.32
1552.01	0.4
1552.37	0.36
1552.74	0.36
1553.1	0.28
1553.46	0.52
1553.82	0.72
1554.18	0.52
1554.55	0.52
1554.91	0.64
1555.27	0.4
1555.63	0.24
1555.99	0.24
1556.36	0.24
1556.72	-1.2
1557.08	-1.2
1557.44	-1.32
1557.8	-1.16
1558.17	-0.96
1558.53	0.36
1558.89	0.36
1559.25	0.36
1559.61	0.4
1559.97	0.2
1560.34	0.2
1560.7	0.2
1561.06	0.2
1561.42	0.24
1561.78	0.4
1562.14	0.04
1562.5	0.04
1562.87	0.04
1563.23	-0.2
1563.59	-0.6
1563.95	-0.24
1564.31	-0.24
1564.67	-0.24
1565.03	-0.24
1565.4	0.24
1565.76	0.24
1566.12	0.24
1566.48	0.24
1566.84	0.24
1567.2	0.16
1567.56	1.33221e-17
1567.92	0.12
1568.29	0.12
1568.65	0.12
1569.01	-0.04
1569.37	-0.16
1569.73	-0.28
1570.09	-0.2
1570.45	-0.16
1570.81	-0.16
1571.17	0.16
1571.53	0.2
1571.89	0.32
1572.26	0.28
1572.62	0.4
1572.98	0.36
1573.34	0.32
1573.7	0.4
1574.06	0.44
1574.42	0.4
1574.78	0.6
1575.14	0.6
1575.5	0.44
1575.86	-0.4
1576.22	-0.48
1576.58	-0.36
1576.94	-0.28
1577.3	-0.4
1577.67	0.4
1578.03	0.56
1578.39	0.48
1578.75	0.4
1579.11	0.4
1579.47	0.4
1579.83	0.28
1580.19	0.04
1580.55	0.28
1580.91	0.72
1581.27	0.72
1581.63	0.68
1581.99	0.68
1582.35	0.6
1582.71	0.16
1583.07	0.16
1583.43	0.24
1583.79	0.4
1584.15	0.56
1584.51	0.76
1584.87	1
1585.23	0.92
1585.59	0.84
1585.95	1.04
1586.31	0.84
1586.67	0.72
1587.03	0.72
1587.39	0.64
1587.75	0.12
1588.11	0.12
1588.47	0
1588.83	0
1589.19	0.32
1589.55	0.4
1589.91	0.4
1590.27	0.4
1590.63	0.4
1590.99	0.16
1591.35	0.44
1591.71	0.56
1592.07	0.6
1592.42	0.6
1592.78	0.52
1593.14	0.16
1593.5	0.28
1593.86	0.44
1594.22	0.52
1594.58	0.52
1594.94	0.64
1595.3	0.68
1595.66	0.48
1596.02	0.48
1596.38	0.68
1596.74	0.68
1597.1	1.04
1597.46	1.04
1597.81	1.04
1598.17	0.84
1598.53	0.84
1598.89	0.2
1599.25	0.2
1599.61	0.48
1599.97	0.48
1600.33	0.36
1600.69	0.44
1601.05	0.44
1601.4	0.08
1601.76	-0.24
1602.12	0.2
1602.48	0.12
1602.84	0.12
1603.2	0.12
1603.56	0.44
1603.92	0.08
1604.28	0.08
1604.63	0.52
1604.99	0.72
1605.35	1.08
1605.71	1
1606.07	1.24
1606.43	0.8
1606.79	0.6
1607.14	0.24
1607.5	0.44
1607.86	0.24
1608.22	0.44
1608.58	0.52
1608.94	0.52
1609.29	0.32
1609.65	0.12
1610.01	-0.08
1610.37	0.52
1610.73	0.6
1611.09	0.64
1611.44	1
1611.8	1
1612.16	0.32
1612.52	0.24
1612.88	0.2
1613.24	0.12
1613.59	0.12
1613.95	0.12
1614.31	0.32
1614.67	0.36
1615.03	0.56
1615.38	0.56
1615.74	0.56
1616.1	0.44
1616.46	0.4
1616.82	0.08
1617.17	0.08
1617.53	0.08
1617.89	0.08
1618.25	0.16
1618.6	0.16
1618.96	0.16
1619.32	0.24
1619.68	0.24
1620.04	0.16
1620.39	-0.04
1620.75	0.64
1621.11	1.04
1621.47	1.24
1621.82	1.76
1622.18	2.2
1622.54	1.88
1622.9	1.4
1623.25	0.28
1623.61	-0.24
1623.97	-0.44
1624.33	-0.8
1624.68	-0.92
1625.04	-0.04
1625.4	2.4425e-17
1625.75	-0.64
1626.11	-0.64
1626.47	-0.44
1626.83	-0.48
1627.18	-0.48
1627.54	0.12
1627.9	0.12
1628.26	0.04
1628.61	0.04
1628.97	0
1629.33	0
1629.68	0
1630.04	0.08
1630.4	-0.52
1630.75	-0.52
1631.11	-0.4
1631.47	-0.6
1631.83	-0.68
1632.18	-0.08
1632.54	-0.08
1632.9	-0.08
1633.25	0.24
1633.61	0.44
1633.97	0.48
1634.32	0.72
1634.68	0.6
1635.04	0.48
1635.39	0.28
1635.75	0.24
1636.11	0
1636.46	0
1636.82	0.16
1637.18	0.16
1637.53	0.16
1637.89	0.2
1638.25	0.32
1638.6	0.16
1638.96	0.16
1639.31	0.16
1639.67	0.12
1640.03	0.12
1640.38	0.12
1640.74	0.28
1641.1	0.28
1641.45	0.28
1641.81	0.16
1642.16	0.16
1642.52	0
1642.88	0
1643.23	-0.56
1643.59	-0.52
1643.95	-0.52
1644.3	-0.52
1644.66	-0.32
1645.01	0.32
1645.37	0.28
1645.73	0.28
1646.08	0.28
1646.44	0.08
1646.79	-0.52
1647.15	-0.52
1647.51	-0.52
1647.86	-0.44
1648.22	-0.4
1648.57	-0.68
1648.93	-0.68
1649.28	-0.68
1649.64	-0.68
1650	-0.72
1650.35	0.24
1650.71	0.44
1651.06	0.56
1651.42	0.56
1651.77	0.36
1652.13	0.2
1652.48	0
1652.84	-0.12
1653.2	-0.2
1653.55	0
1653.91	0
1654.26	0
1654.62	0
1654.97	0
1655.33	0.04
1655.68	0.04
1656.04	0.48
1656.39	0.48
1656.75	0.48
1657.1	0.44
1657.46	0.56
1657.81	0.12
1658.17	0.12
1658.52	0.4
1658.88	0.44
1659.23	0.32
1659.59	0.32
1659.94	0.44
1660.3	0.24
1660.65	0.2
1661.01	0.36
1661.36	0.4
1661.72	0.32
1662.07	0.28
1662.43	0.52
1662.78	0.64
1663.14	0.76
1663.49	0.72
1663.85	0.88
1664.2	0.64
1664.56	0.44
1664.91	-1.2
1665.27	-1.12
1665.62	-1.32
1665.98	-1.24
1666.33	-1
1666.69	0.72
1667.04	0.68
1667.39	0.68
1667.75	0.88
1668.1	1.24
1668.46	1.36
1668.81	1.32
1669.17	1.32
1669.52	1.28
1669.88	0.92
1670.23	0.6
1670.58	0.64
1670.94	0.84
1671.29	0.84
1671.65	0.68
1672	1.52
1672.36	1.68
1672.71	1.52
1673.06	1.4
1673.42	1.88
1673.77	1.04
1674.13	1.68
1674.48	1.84
1674.83	2.08
1675.19	1.68
1675.54	2.2
1675.9	2.32
1676.25	2.52
1676.6	2.44
1676.96	2.72
1677.31	2.76
1677.67	2.4
1678.02	2.68
1678.37	2.96
1678.73	2.6
1679.08	2.6
1679.43	2
1679.79	1.56
1680.14	1.48
1680.5	1.2
1680.85	1.28
1681.2	1.52
1681.56	1.68
1681.91	1.72
1682.26	2.16
1682.62	1.92
1682.97	1.96
1683.32	2.16
1683.68	2.08
1684.03	2.36
1684.38	2.12
1684.74	2.6
1685.09	2.36
1685.44	2.64
1685.8	3.08
1686.15	3.56
1686.5	3.88
1686.86	3.72
1687.21	3.36
1687.56	2.32
1687.92	1.68
1688.27	1.16
1688.62	1.6
1688.98	1.76
1689.33	1.92
1689.68	2.88
1690.03	2.88
1690.39	3.52
1690.74	3.32
1691.09	3.84
1691.45	2.68
1691.8	2.28
1692.15	2.12
1692.5	1.8
1692.86	1.92
1693.21	2.48
1693.56	3.16
1693.92	2.04
1694.27	2.44
1694.62	2.44
1694.97	3.32
1695.33	2.92
1695.68	3.64
1696.03	3.72
1696.38	3.36
1696.74	2.96
1697.09	2.64
1697.44	2.64
1697.79	2.24
1698.15	2.68
1698.5	2.64
1698.85	2.8
1699.2	1.32
1699.56	1.72
1699.91	1.2
1700.26	0.64
1700.61	1.32
1700.97	2.24
1701.32	2.72
1701.67	3.24
1702.02	3.52
1702.37	3.04
1702.73	3.24
1703.08	2.6
1703.43	2.28
1703.78	2.12
1704.13	2.32
1704.49	2.44
1704.84	2.2
1705.19	2.76
1705.54	2.72
1705.89	2.64
1706.25	2.56
1706.6	2.92
1706.95	2.24
1707.3	2.36
1707.65	2.48
1708.01	2.32
1708.36	2.44
1708.71	2.72
1709.06	2.72
1709.41	2.24
1709.76	2.64
1710.12	2.44
1710.47	1.92
1710.82	2.16
1711.17	2.12
1711.52	1.84
1711.87	1.88
1712.23	2.44
1712.58	2.48
1712.93	2.32
1713.28	2.08
1713.63	2.16
1713.98	1.56
1714.33	1.76
1714.69	2.72
1715.04	3
1715.39	2.88
1715.74	3.68
1716.09	3.32
1716.44	3.68
1716.79	3.88
1717.14	4.2
1717.5	4.24
1717.85	4.76
1718.2	3.6
1718.55	3.16
1718.9	2.96
1719.25	3
1719.6	2.08
1719.95	1.96
1720.3	2.76
1720.65	2.96
1721.01	2.76
1721.36	3.48
1721.71	3.76
1722.06	3.2
1722.41	3.36
1722.76	2.92
1723.11	2.12
1723.46	2.4
1723.81	2.84
1724.16	2.96
1724.51	3.48
1724.86	4.08
1725.21	4.84
1725.56	4.44
1725.92	3.92
1726.27	4.68
1726.62	4.44
1726.97	3.16
1727.32	3.28
1727.67	3.84
1728.02	2.88
1728.37	3.36
1728.72	5
1729.07	4.64
1729.42	4.44
1729.77	4.72
1730.12	5.16
1730.47	4.56
1730.82	4.52
1731.17	4.44
1731.52	4.44
1731.87	3.48
1732.22	3.24
1732.57	4.04
1732.92	3.56
1733.27	3.2
1733.62	3.28
1733.97	2.88
1734.32	2.48
1734.67	2.52
1735.02	2.36
1735.37	2.52
1735.72	2.24
1736.07	2.08
1736.42	2.44
1736.77	2.56
1737.12	2.28
1737.47	2.32
1737.82	2.28
1738.17	1.72
1738.52	1.44
1738.87	1.6
1739.22	1.4
1739.57	1.32
1739.92	1.28
1740.27	1.16
1740.62	1
1740.97	1.04
1741.32	1.8
1741.67	1.76
1742.02	1.8
1742.37	1.88
1742.72	2.28
1743.06	1.32
1743.41	1.48
1743.76	1.6
1744.11	-0.08
1744.46	-0.6
1744.81	-0.6
1745.16	-0.36
1745.51	-0.44
1745.86	0.88
1746.21	1.16
1746.56	1.92
1746.91	1.6
1747.26	1.44
1747.6	1.36
1747.95	1.16
1748.3	0.52
1748.65	0.6
1749	0.64
1749.35	0.64
1749.7	0.72
1750.05	0.52
1750.4	0.36
1750.75	0.2
1751.09	0.52
1751.44	0.44
1751.79	-2.22261e-18
1752.14	0.12
1752.49	0.24
1752.84	-0.12
1753.19	-0.2
1753.54	0.44
1753.88	0.32
1754.23	0.2
1754.58	0.44
1754.93	0.88
1755.28	0.68
1755.63	0.68
1755.98	0.84
1756.32	1.52
1756.67	1.08
1757.02	1.32
1757.37	1.44
1757.72	1.48
1758.07	0.56
1758.42	0.68
1758.76	1.44
1759.11	1.32
1759.46	1.12
1759.81	2.2
1760.16	2.32
1760.5	1.6
1760.85	1.44
1761.2	1.44
1761.55	2.72
1761.9	3.44
1762.25	3.64
1762.59	6.28
1762.94	7.24
1763.29	4.96
1763.64	4.88
1763.99	5.4
1764.33	4.04
1764.68	3.4
1765.03	3.44
1765.38	6.68
1765.73	7.24
1766.07	6.76
1766.42	9.32
1766.77	11.52
1767.12	9.36
1767.46	9.44
1767.81	9.88
1768.16	10.2
1768.51	9.52
1768.85	8.48
1769.2	11.48
1769.55	14.72
1769.9	14.32
1770.25	15.6
1770.59	19.68
1770.94	18.08
1771.29	17.32
1771.64	19.56
1771.98	20.84
1772.33	22.6
1772.68	24.28
1773.02	24.4
1773.37	28.36
1773.72	29.92
1774.07	29.2
1774.41	33.44
1774.76	34.92
1775.11	34.52
1775.46	36
1775.8	34.56
1776.15	32.96
1776.5	36.92
1776.84	35.96
1777.19	38.8
1777.54	45.68
1777.89	48.24
1778.23	51.32
1778.58	53.96
1778.93	57
1779.27	57.04
1779.62	58.72
1779.97	57.64
1780.31	59.68
1780.66	56.68
1781.01	56.64
1781.35	58.96
1781.7	62.56
1782.05	67.2
1782.39	70.88
1782.74	72.96
1783.09	76.56
1783.43	76.16
1783.78	74.92
1784.13	79.2
1784.47	79.68
1784.82	79.44
1785.17	79.04
1785.51	77.24
1785.86	80.08
1786.21	86.64
1786.55	89.16
1786.9	100.64
1787.25	106.76
1787.59	107.24
1787.94	108.12
1788.29	105.64
1788.63	101.64
1788.98	102.08
1789.32	103.12
1789.67	103.72
1790.02	101.56
1790.36	99.96
1790.71	109.08
1791.06	113.16
1791.4	121
1791.75	133.56
1792.09	153.32
1792.44	164.44
1792.79	167.16
1793.13	175.4
1793.48	185.68
1793.82	175.92
1794.17	168.08
1794.52	168.2
1794.86	158.48
1795.21	152.72
1795.55	137.8
1795.9	116.8
1796.24	126.08
1796.59	147.36
1796.94	164.44
1797.28	190.04
1797.63	214.68
1797.97	210.6
1798.32	191.96
1798.66	188.56
1799.01	191.92
1799.36	186.04
1799.7	190.4
1800.05	198.92
1800.39	183
1800.74	190.32
1801.08	218.76
1801.43	238.08
1801.77	241.36
1802.12	251
1802.46	254.52
1802.81	240.68
1803.15	219.88
1803.5	215.8
1803.85	202.64
1804.19	178.92
1804.54	175.36
1804.88	174.08
1805.23	169.88
1805.57	197.2
1805.92	227.48
1806.26	237.28
1806.61	238.8
1806.95	258.24
1807.3	277.16
1807.64	281.84
1807.99	290
1808.33	295.12
1808.68	275.6
1809.02	276.64
1809.37	289.72
1809.71	295.12
1810.06	307.72
1810.4	313.44
1810.75	279.72
1811.09	275.96
1811.43	296.6
1811.78	334.28
1812.12	382.08
1812.47	409.6
1812.81	403.2
1813.16	391.28
1813.5	359.64
1813.85	333.4
1814.19	325.76
1814.54	303.56
1814.88	279.6
1815.23	259.08
1815.57	220.28
1815.91	178.64
1816.26	183.8
1816.6	209.36
1816.95	228.68
1817.29	262.64
1817.64	310.36
1817.98	353.48
1818.32	372.68
1818.67	386.24
1819.01	407.48
1819.36	413.08
1819.7	371.52
1820.05	345.48
1820.39	351.2
1820.73	329.92
1821.08	323.56
1821.42	329.88
1821.77	306.52
1822.11	264.56
1822.45	252.4
1822.8	235.72
1823.14	208.56
1823.49	218.16
1823.83	273.04
1824.17	314.92
1824.52	345.96
1824.86	382.24
1825.2	386.92
1825.55	351.52
1825.89	303.4
1826.24	272.72
1826.58	298.88
1826.92	318.16
1827.27	324.28
1827.61	358.52
1827.95	371
1828.3	327.36
1828.64	297.96
1828.98	268.68
1829.33	232.36
1829.67	268.08
1830.02	295.6
1830.36	307.48
1830.7	364.48
1831.05	403.96
1831.39	370.44
1831.73	357.16
1832.08	354.4
1832.42	312.36
1832.76	295.8
1833.1	280.48
1833.45	257.4
1833.79	244
1834.13	234.32
1834.48	223.04
1834.82	230
1835.16	234.84
1835.51	230.68
1835.85	235.2
1836.19	222.88
1836.54	194.68
1836.88	180.76
1837.22	158.12
1837.56	136.24
1837.91	141
1838.25	164.36
1838.59	183.64
1838.94	208.52
1839.28	219.96
1839.62	210.6
1839.96	202.64
1840.31	175.8
1840.65	146.32
1840.99	148.12
1841.34	194.4
1841.68	211.84
1842.02	236.56
1842.36	269.64
1842.71	262.32
1843.05	204
1843.39	193.52
1843.73	206.52
1844.08	218.32
1844.42	259.48
1844.76	295.8
1845.1	287.2
1845.45	256.96
1845.79	238.44
1846.13	213.08
1846.47	198.6
1846.81	187.84
1847.16	183.12
1847.5	192.2
1847.84	208.04
1848.18	214.96
1848.53	229.6
1848.87	241.44
1849.21	227.84
1849.55	203.28
1849.89	188.64
1850.24	173.52
1850.58	164.16
1850.92	155.28
1851.26	147.12
1851.6	146.96
1851.95	142.48
1852.29	135.92
1852.63	135.6
1852.97	130.92
1853.31	114.8
1853.66	106.72
1854	95.24
1854.34	92.84
1854.68	111.56
1855.02	121.72
1855.36	123.84
1855.71	130.96
1856.05	123.28
1856.39	98.24
1856.73	86.12
1857.07	79.56
1857.41	75
1857.76	75.52
1858.1	73.44
1858.44	67.76
1858.78	70.68
1859.12	62.92
1859.46	51.64
1859.8	45.52
1860.15	42.2
1860.49	48.16
1860.83	63.68
1861.17	71.12
1861.51	72.64
1861.85	77.44
1862.19	61.12
1862.53	48.4
1862.88	50.36
1863.22	47.44
1863.56	40.88
1863.9	43.36
1864.24	41.32
1864.58	31.16
1864.92	29.64
1865.26	27.72
1865.6	22.76
1865.94	18.52
1866.29	15.08
1866.63	12.64
1866.97	12.52
1867.31	11
1867.65	9.8
1867.99	11.48
1868.33	10.44
1868.67	9.36
1869.01	11.64
1869.35	22.76
1869.69	33.08
1870.03	40.4
1870.37	47.48
1870.72	48.12
1871.06	35.44
1871.4	23.48
1871.74	16.12
1872.08	12.08
1872.42	21.16
1872.76	30.88
1873.1	32.24
1873.44	32.28
1873.78	28.24
1874.12	16.52
1874.46	13.6
1874.8	20.68
1875.14	27.72
1875.48	30.52
1875.82	32.24
1876.16	30.32
1876.5	25.12
1876.84	19.6
1877.18	17.12
1877.52	14.2
1877.86	8.2
1878.2	4.52
1878.54	2.24
1878.88	2.32
1879.22	3
1879.56	4.16
1879.9	4.36
1880.24	5.64
1880.58	8.48
1880.92	10.52
1881.26	11.96
1881.6	12.4
1881.94	11.76
1882.28	11.28
1882.62	15.48
1882.96	20.52
1883.3	22.92
1883.64	24.72
1883.98	23.12
1884.32	17.52
1884.66	11.2
1885	8.84
1885.34	7.48
1885.68	9.68
1886.02	10.28
1886.36	10.08
1886.7	10.08
1887.04	11.04
1887.38	9.92
1887.72	10.96
1888.06	12.52
1888.39	17.04
1888.73	20
1889.07	30.84
1889.41	35.88
1889.75	39.44
1890.09	44.72
1890.43	47.48
1890.77	37.28
1891.11	30.96
1891.45	27.32
1891.79	20
1892.13	14.8
1892.47	16.84
1892.8	20.2
1893.14	22.96
1893.48	26.28
1893.82	32.6
1894.16	31.44
1894.5	29.76
1894.84	30.96
1895.18	30.16
1895.52	26.36
1895.86	30.52
1896.19	35.12
1896.53	35.88
1896.87	40
1897.21	43.24
1897.55	42.4
1897.89	44.68
1898.23	51
1898.57	47.36
1898.9	46.56
1899.24	49.88
1899.58	47.8
1899.92	43.72
1900.26	46.52
1900.6	48.2
1900.94	46.28
1901.27	48.64
1901.61	50.56
1901.95	49.64
1902.29	51.32
1902.63	53.76
1902.97	55
1903.3	54.12
1903.64	58.64
1903.98	59.92
1904.32	61.12
1904.66	60.04
1905	62.04
1905.33	60.64
1905.67	63.24
1906.01	65.52
1906.35	68.84
1906.69	67.72
1907.02	68
1907.36	65.8
1907.7	65.36
1908.04	63.88
1908.38	68.32
1908.71	70.08
1909.05	72.44
1909.39	72.04
1909.73	74.44
1910.07	71.8
1910.4	71.04
1910.74	71.64
1911.08	73.76
1911.42	73.56
1911.76	77.12
1912.09	78.04
1912.43	77.16
1912.77	76.84
1913.11	78.92
1913.44	77.08
1913.78	78.68
1914.12	80.12
1914.46	81.56
1914.79	82
1915.13	83.84
1915.47	84.2
1915.81	84.96
1916.14	85.64
1916.48	85.12
1916.82	84.88
1917.16	86.36
1917.49	87.96
1917.83	87.96
1918.17	88.76
1918.5	90.48
1918.84	91.12
1919.18	90.64
1919.52	91.8
1919.85	93.44
1920.19	92.76
1920.53	95.08
1920.87	95.6
1921.2	95.68
1921.54	94.96
1921.88	96.88
1922.21	94.16
1922.55	95.2
1922.89	96.64
1923.22	97.16
1923.56	96.56
1923.9	98.64
1924.23	97
1924.57	95.16
1924.91	97.12
1925.25	98.96
1925.58	99.12
1925.92	101.32
1926.26	104.48
1926.59	103.44
1926.93	103.84
1927.27	104.68
1927.6	104.16
1927.94	101.92
1928.28	105.12
1928.61	104
1928.95	104.6
1929.29	106.04
1929.62	107.6
1929.96	103.6
1930.29	105.24
1930.63	106
1930.97	106.4
1931.3	107.04
1931.64	110.64
1931.98	109.52
1932.31	107
1932.65	109.04
1932.99	109.08
1933.32	107.88
1933.66	109.56
1933.99	111.44
1934.33	110.52
1934.67	110.28
1935	109.12
1935.34	107.2
1935.67	108.44
1936.01	107.84
1936.35	109.52
1936.68	113.12
1937.02	115.28
1937.35	115.04
1937.69	115.92
1938.03	115.4
1938.36	110.32
1938.7	112.04
1939.03	112.04
1939.37	111.04
1939.7	112.12
1940.04	117.88
1940.38	115.52
1940.71	115.68
1941.05	118.2
1941.38	117.52
1941.72	116.52
1942.05	119
1942.39	119.08
1942.73	118.32
1943.06	121.2
1943.4	120.72
1943.73	118.8
1944.07	119.76
1944.4	120.28
1944.74	118.08
1945.07	119.92
1945.41	121.2
1945.74	120.28
1946.08	121.04
1946.42	122.52
1946.75	120.2
1947.09	119.36
1947.42	121.6
1947.76	119.88
1948.09	118.76
1948.43	121.04
1948.76	123.64
1949.1	122.48
1949.43	123.88
1949.77	124.96
1950.1	122.88
1950.44	120.56
1950.77	122.08
1951.11	121.52
1951.44	119.72
1951.78	120.28
1952.11	122
1952.45	119.68
1952.78	118.8
1953.12	118.76
1953.45	119.16
1953.79	116.12
1954.12	116.56
1954.46	117.12
1954.79	116.4
1955.12	116.24
1955.46	118.56
1955.79	119.64
1956.13	116.52
1956.46	117.24
1956.8	116.2
1957.13	114.72
1957.47	111.6
1957.8	113.68
1958.14	113.4
1958.47	112.64
1958.8	112.36
1959.14	114.12
1959.47	113.48
1959.81	114.12
1960.14	115.44
1960.48	115.92
1960.81	112.48
1961.14	111.6
1961.48	109.48
1961.81	107.76
1962.15	104.4
1962.48	106.04
1962.82	105.04
1963.15	103.56
1963.48	102.48
1963.82	102.72
1964.15	101.72
1964.49	100.24
1964.82	99.56
1965.15	99.88
1965.49	100.28
1965.82	97.44
1966.16	99.92
1966.49	100.36
1966.82	97
1967.16	94.36
1967.49	95.04
1967.83	90.96
1968.16	88.08
1968.49	90.32
1968.83	90.28
1969.16	89.68
1969.49	88.52
1969.83	88.52
1970.16	86.08
1970.49	83.4
1970.83	82.36
1971.16	83.04
1971.5	83.04
1971.83	80.96
1972.16	81.36
1972.5	78.92
1972.83	77.12
1973.16	74.28
1973.5	74.96
1973.83	73.8
1974.16	74.68
1974.5	73.4
1974.83	74.16
1975.16	71.52
1975.5	70.48
1975.83	68.68
1976.16	68.2
1976.49	66.2
1976.83	66.04
1977.16	64.04
1977.49	63.04
1977.83	61.36
1978.16	60.52
1978.49	59.4
1978.83	59.16
1979.16	57.12
1979.49	55.04
1979.83	54.44
1980.16	52.4
1980.49	50.68
1980.82	51.28
1981.16	50.08
1981.49	47.76
1981.82	46.28
1982.15	46.12
1982.49	43
1982.82	42.44
1983.15	41.92
1983.49	41.56
1983.82	39.12
1984.15	38.72
1984.48	37.52
1984.82	35.88
1985.15	34.84
1985.48	33.48
1985.81	32.24
1986.15	31.56
1986.48	29.96
1986.81	29.24
1987.14	28.24
1987.48	27.28
1987.81	27.56
1988.14	26.52
1988.47	24.44
1988.81	23.6
1989.14	22.52
1989.47	19.2
1989.8	19.2
1990.13	18.52
1990.47	17.8
1990.8	17.36
1991.13	17.6
1991.46	16.76
1991.79	15.44
1992.13	14.04
1992.46	13.36
1992.79	12
1993.12	12.08
1993.45	11.36
1993.79	10.4
1994.12	8.76
1994.45	10.24
1994.78	7.92
1995.11	8.6
1995.45	9
1995.78	9
1996.11	7.32
1996.44	7.64
1996.77	6.16
1997.1	6.4
1997.44	6.68
1997.77	5.72
1998.1	5.52
1998.43	6.4
1998.76	5.84
1999.09	5.16
1999.43	5.24
1999.76	4.92
2000.09	4.56
2000.42	4.68
2000.75	3.16
2001.08	3.16
2001.41	3.4
2001.75	3.2
2002.08	3.52
2002.41	5.32
2002.74	5.72
2003.07	5.48
2003.4	4.88
2003.73	4.36
2004.06	3.32
2004.4	2.36
2004.73	1.84
2005.06	1.4
2005.39	1.8
2005.72	2
2006.05	3.12
2006.38	3.16
2006.71	4.28
2007.04	3.96
2007.37	4.12
2007.71	3.52
2008.04	3.6
2008.37	3.48
2008.7	2.8
2009.03	4.28
2009.36	4.96
2009.69	4.68
2010.02	4.24
2010.35	5.48
2010.68	4.4
2011.01	3.36
2011.34	4
2011.67	4.56
2012.01	3.44
2012.34	3.68
2012.67	4.32
2013	4.24
2013.33	3.92
2013.66	4.96
2013.99	4.72
2014.32	4.92
2014.65	5.08
2014.98	6.44
2015.31	6.4
2015.64	6.08
2015.97	6.4
2016.3	6.64
2016.63	5.92
2016.96	5.36
2017.29	4.96
2017.62	4.8
2017.95	4.92
2018.28	5.16
2018.61	6.88
2018.94	8.64
2019.27	8
2019.6	8.68
2019.93	8.04
2020.26	6.84
2020.59	6.64
2020.92	7.68
2021.25	7.76
2021.58	9.24
2021.91	10.44
2022.24	11.64
2022.57	12.28
2022.9	12.56
2023.23	11.36
2023.56	11.16
2023.89	9.08
2024.22	9.64
2024.55	9.56
2024.88	9.96
2025.21	10.68
2025.54	10.76
2025.87	10.48
2026.2	10.04
2026.53	10.12
2026.86	9.48
2027.19	9.64
2027.52	9.6
2027.85	9.68
2028.18	10.32
2028.51	10.24
2028.84	11.16
2029.16	11
2029.49	12.28
2029.82	11.72
2030.15	10.2
2030.48	8.92
2030.81	7.88
2031.14	6.92
2031.47	7
2031.8	9.76
2032.13	10.28
2032.46	11.56
2032.79	10.56
2033.12	11.04
2033.44	9.16
2033.77	9.84
2034.1	10.12
2034.43	10.6
2034.76	9.76
2035.09	10.04
2035.42	9.12
2035.75	7.52
2036.08	7.08
2036.41	7.28
2036.73	7.8
2037.06	8.04
2037.39	9
2037.72	9.24
2038.05	9.16
2038.38	8.88
2038.71	8.76
2039.04	7.32
2039.36	7.6
2039.69	7.72
2040.02	5.8
2040.35	5.88
2040.68	6.44
2041.01	5.36
2041.34	5.36
2041.66	6.12
2041.99	6.48
2042.32	7.36
2042.65	7.4
2042.98	6.76
2043.31	7.36
2043.63	7.12
2043.96	6.68
2044.29	7.64
2044.62	7.56
2044.95	7
2045.28	6.48
2045.6	5.52
2045.93	4.56
2046.26	4.28
2046.59	3.72
2046.92	3.36
2047.24	3.6
2047.57	4.44
2047.9	4.04
2048.23	6.08
2048.56	6
2048.88	6.12
2049.21	5.2
2049.54	5.2
2049.87	3.16
2050.2	3.32
2050.52	2.76
2050.85	3.24
2051.18	2.8
2051.51	3.24
2051.83	3.72
2052.16	3.32
2052.49	3.44
2052.82	4.36
2053.15	4.4
2053.47	3.96
2053.8	4.2
2054.13	3.44
2054.46	3.12
2054.78	2.64
2055.11	2.2
2055.44	2
2055.77	2.8
2056.09	2.36
2056.42	3.12
2056.75	3.56
2057.08	3.68
2057.4	3.24
2057.73	3.84
2058.06	3.56
2058.38	4.44
2058.71	4.48
2059.04	4.32
2059.37	3.8
2059.69	3.52
2060.02	2.52
2060.35	2.64
2060.67	2.36
2061	2.72
2061.33	2.4
2061.66	1.84
2061.98	1.64
2062.31	1.52
2062.64	1.56
2062.96	1.92
2063.29	2.04
2063.62	2.32
2063.94	2.32
2064.27	1.96
2064.6	0.8
2064.92	0.8
2065.25	0.4
2065.58	0.12
2065.91	0.24
2066.23	1
2066.56	1.12
2066.89	1.52
2067.21	1.76
2067.54	1.8
2067.87	1.84
2068.19	1.64
2068.52	1.36
2068.84	1.08
2069.17	0.8
2069.5	0.6
2069.82	0.36
2070.15	0.24
2070.48	0.24
2070.8	0.12
2071.13	0.16
2071.46	0.72
2071.78	0.56
2072.11	0.72
2072.43	0.96
2072.76	1.12
2073.09	1.04
2073.41	1
2073.74	0.92
2074.07	0.84
2074.39	0.72
2074.72	0.64
2075.04	0.8
2075.37	0.72
2075.7	0.52
2076.02	0.56
2076.35	0.4
2076.67	0.52
2077	0.68
2077.33	0.76
2077.65	0.72
2077.98	0.8
2078.3	0.56
2078.63	0.8
2078.95	0.72
2079.28	0.64
2079.61	-0.12
2079.93	-0.16
2080.26	-0.56
2080.58	-0.6
2080.91	-0.48
2081.23	0.24
2081.56	0.52
2081.89	0.52
2082.21	0.64
2082.54	0.68
2082.86	1.04
2083.19	1
2083.51	1.08
2083.84	1.48
2084.16	1.4
2084.49	1
2084.81	0.84
2085.14	0.92
2085.46	0.52
2085.79	0.44
2086.12	0.36
2086.44	0.28
2086.77	0.68
2087.09	0.56
2087.42	0.64
2087.74	0.8
2088.07	1.28
2088.39	0.72
2088.72	0.84
2089.04	0.96
2089.37	0.8
2089.69	0.92
2090.02	1
2090.34	0.48
2090.67	0.64
2090.99	-1.52
2091.32	-1.88
2091.64	-1.76
2091.97	-1.04
2092.29	-1.24
2092.62	1.28
2092.94	1.12
2093.26	0.96
2093.59	1.16
2093.91	0.16
2094.24	0.04
2094.56	0.2
2094.89	0.2
2095.21	-8.21554e-17
2095.54	0.84
2095.86	1
2096.19	0.92
2096.51	0.88
2096.84	0.72
2097.16	0.76
2097.48	0.36
2097.81	0.28
2098.13	0.68
2098.46	0.48
2098.78	0.84
2099.11	0.84
2099.43	0.76
2099.75	0.56
2100.08	0.68
2100.4	0.44
2100.73	0.52
2101.05	0.52
2101.38	0.44
2101.7	0.36
2102.02	0.24
2102.35	0.2
2102.67	0.48
2103	0.36
2103.32	0.36
2103.64	0.4
2103.97	0.36
2104.29	0.2
2104.62	0.24
2104.94	0.4
2105.26	-0.24
2105.59	-0.2
2105.91	-0.24
2106.23	0.04
2106.56	-0.04
2106.88	0.52
2107.21	0.72
2107.53	0.64
2107.85	0.44
2108.18	0.76
2108.5	1.04
2108.82	1.24
2109.15	1.28
2109.47	1.56
2109.79	1.16
2110.12	0.88
2110.44	0.44
2110.76	0.64
2111.09	0.32
2111.41	0.4
2111.73	0.4
2112.06	0.48
2112.38	0.48
2112.7	-0.08
2113.03	-0.16
2113.35	-0.04
2113.67	-0.12
2114	-0.36
2114.32	0.16
2114.64	0.16
2114.97	0.24
2115.29	0.52
2115.61	0.52
2115.94	0.48
2116.26	0.48
2116.58	0.28
2116.91	-0.68
2117.23	-0.4
2117.55	-0.4
2117.87	-0.4
2118.2	-0.2
2118.52	0.48
2118.84	0.36
2119.17	0.36
2119.49	0.36
2119.81	0.2
2120.13	0.2
2120.46	0.04
2120.78	-0.96
2121.1	-0.92
2121.42	-0.6
2121.75	-0.36
2122.07	-0.24
2122.39	0.76
2122.72	0.8
2123.04	0.6
2123.36	0.36
2123.68	0.24
2124.01	0.28
2124.33	0.2
2124.65	0.4
2124.97	0.4
2125.29	0.4
2125.62	0.44
2125.94	0.44
2126.26	0.12
2126.58	0.12
2126.91	-0.76
2127.23	-0.84
2127.55	-0.84
2127.87	-0.84
2128.2	-0.84
2128.52	0.04
2128.84	0.92
2129.16	0.92
2129.48	0.96
2129.81	0.96
2130.13	0.96
2130.45	0.16
2130.77	0.16
2131.09	0.08
2131.42	0.08
2131.74	0.08
2132.06	0.04
2132.38	0.12
2132.7	0.12
2133.02	0.12
2133.35	0.12
2133.67	0.08
2133.99	0
2134.31	-0.6
2134.63	-0.4
2134.96	-0.4
2135.28	-0.4
2135.6	-0.24
2135.92	0.48
2136.24	0.28
2136.56	0.36
2136.88	0.72
2137.21	0.56
2137.53	0.44
2137.85	0.56
2138.17	0.08
2138.49	-0.28
2138.81	-0.12
2139.13	-0.12
2139.46	-0.24
2139.78	0.16
2140.1	0.28
2140.42	0.12
2140.74	0.12
2141.06	0.2
2141.38	0.2
2141.7	0.16
2142.03	0.16
2142.35	0.16
2142.67	0.36
2142.99	0.48
2143.31	0.4
2143.63	0.72
2143.95	0.72
2144.27	0.52
2144.59	0.6
2144.91	0.4
2145.24	0.2
2145.56	0.6
2145.88	0.72
2146.2	0.52
2146.52	0.72
2146.84	0.72
2147.16	0.36
2147.48	0.2
2147.8	0.2
2148.12	0.2
2148.44	0.08
2148.76	0.04
2149.08	0
2149.41	0
2149.73	0.04
2150.05	0.04
2150.37	0.04
2150.69	0.04
2151.01	0.04
2151.33	0.16
2151.65	0.16
2151.97	0.16
2152.29	0.16
2152.61	-0.16
2152.93	-0.2
2153.25	-0.2
2153.57	-0.2
2153.89	-0.16
2154.21	-0.2
2154.53	-0.32
2154.85	-0.28
2155.17	-0.28
2155.49	-0.52
2155.81	-0.12
2156.13	0.12
2156.45	0.08
2156.77	0.36
2157.09	0.56
2157.41	0.52
2157.73	0.48
2158.05	0.52
2158.37	0.36
2158.69	0.52
2159.01	0.68
2159.33	0.48
2159.65	0.6
2159.97	0.52
2160.29	0.44
2160.61	0.4
2160.93	0.4
2161.25	0.24
2161.57	0.2
2161.89	0.12
2162.21	0.04
2162.53	0.04
2162.85	-0.56
2163.17	-0.44
2163.49	-0.44
2163.81	-0.48
2164.13	-0.48
2164.45	-0.48
2164.77	-0.56
2165.08	-0.56
2165.4	-0.56
2165.72	-0.56
2166.04	0.12
2166.36	0.08
2166.68	0.12
2167	0.12
2167.32	0.16
2167.64	0.08
2167.96	0.08
2168.28	0.04
2168.6	0.08
2168.92	0.04
2169.24	0.04
2169.55	0.04
2169.87	0.12
2170.19	0.16
2170.51	0.44
2170.83	0.48
2171.15	0.56
2171.47	0.48
2171.79	0.4
2172.11	0.12
2172.43	0.12
2172.74	0.04
2173.06	0.04
2173.38	0.04
2173.7	0.04
2174.02	0.08
2174.34	0.08
2174.66	0.12
2174.98	0.12
2175.29	0.12
2175.61	0.04
2175.93	0.04
2176.25	0
2176.57	0
2176.89	0.04
2177.21	0.04
2177.52	0.12
2177.84	0.12
2178.16	0.16
2178.48	0.12
2178.8	0.12
2179.12	0.2
2179.43	0.2
2179.75	-0.84
2180.07	-0.84
2180.39	-0.84
2180.71	-1
2181.03	-1
2181.34	0
2181.66	0.04
2181.98	0.04
2182.3	0.04
2182.62	0.16
2182.93	-0.08
2183.25	-0.12
2183.57	-0.04
2183.89	-0.04
2184.21	-0.16
2184.52	0.08
2184.84	0.28
2185.16	0.2
2185.48	0.28
2185.8	0.32
2186.11	0.32
2186.43	0.12
2186.75	0.12
2187.07	-0.32
2187.39	-1.16
2187.7	-1.08
2188.02	-1.56
2188.34	-1.56
2188.66	-1.2
2188.97	-0.4
2189.29	-0.48
2189.61	0
2189.93	0
2190.24	0
2190.56	0
2190.88	0
2191.2	0.16
2191.51	0.24
2191.83	0.24
2192.15	0.28
2192.47	0.28
2192.78	0.2
2193.1	0.12
2193.42	0.12
2193.74	0.16
2194.05	0.48
2194.37	0.44
2194.69	0.44
2195	0.04
2195.32	2.4425e-17
2195.64	-0.32
2195.96	-0.36
2196.27	-0.36
2196.59	-0.24
2196.91	-0.28
2197.22	-0.28
2197.54	-0.28
2197.86	-0.2
2198.18	0.08
2198.49	0.08
2198.81	0.08
2199.13	0.28
2199.44	0.2
2199.76	0.2
2200.08	0.2
2200.39	0.2
2200.71	0
2201.03	0.04
2201.34	0.04
2201.66	0.04
2201.98	0.12
2202.29	0.16
2202.61	0.12
2202.93	0.2
2203.24	0.24
2203.56	0.16
2203.88	0.12
2204.19	0.12
2204.51	0.08
2204.83	0.12
2205.14	0.24
2205.46	0.28
2205.78	0.28
2206.09	0.24
2206.41	-0.04
2206.72	-0.36
2207.04	-0.4
2207.36	-0.8
2207.67	-0.72
2207.99	-0.52
2208.31	-0.24
2208.62	-0.24
2208.94	0.2
2209.25	0.12
2209.57	0.12
2209.89	0.12
2210.2	0.12
2210.52	0.08
2210.83	0.08
2211.15	0.08
2211.47	0
2211.78	0
2212.1	-0.36
2212.41	-0.36
2212.73	-0.24
2213.05	-0.24
2213.36	-0.16
2213.68	0.2
2213.99	0.2
2214.31	0.08
2214.62	0.08
2214.94	0.04
2215.26	0.04
2215.57	0.04
2215.89	0.16
2216.2	0.16
2216.52	0.12
2216.83	0.24
2217.15	0.24
2217.46	0.2
2217.78	0.2
2218.1	0
2218.41	-0.12
2218.73	-0.04
2219.04	-0.12
2219.36	-0.12
2219.67	0.08
2219.99	0.08
2220.3	0
2220.62	0
2220.93	0.04
2221.25	0.2
2221.56	0.36
2221.88	0.36
2222.19	0.44
2222.51	0.4
2222.82	-1.16
2223.14	-1.32
2223.45	-1.32
2223.77	-1.4
2224.08	-1.4
2224.4	0.04
2224.71	0.04
2225.03	0.04
2225.34	0.04
2225.66	-1.12
2225.97	-1.08
2226.29	-1.08
2226.6	-1.08
2226.92	-0.92
2227.23	0.36
2227.55	0.56
2227.86	0.56
2228.18	0.56
2228.49	0.4
2228.81	0.28
2229.12	0
2229.44	0.04
2229.75	0.04
2230.07	0.04
2230.38	0.04
2230.69	0.04
2231.01	0
2231.32	0
2231.64	0
2231.95	0
2232.27	0
2232.58	0
2232.9	0
2233.21	0
2233.52	0
2233.84	0
2234.15	0.2
2234.47	0.2
2234.78	0.2
2235.1	0.2
2235.41	0.32
2235.72	0.12
2236.04	0.12
2236.35	0.12
2236.67	-0.48
2236.98	-0.48
2237.29	-0.48
2237.61	-0.48
2237.92	-0.48
2238.24	0.12
2238.55	0
2238.86	0
2239.18	0
2239.49	-0.8
2239.8	-0.8
2240.12	-0.76
2240.43	-0.76
2240.75	-0.6
2241.06	0.36
2241.37	0.48
2241.69	0.44
2242	0.44
2242.31	0.28
2242.63	0.28
2242.94	0.24
2243.26	-0.36
2243.57	-0.36
2243.88	-0.36
2244.2	-0.52
2244.51	-0.52
2244.82	0.08
2245.14	0.16
2245.45	0.16
2245.76	0.16
2246.08	0.08
2246.39	0.08
2246.7	0.04
2247.02	0.04
2247.33	0.04
2247.64	0.04
2247.96	0.2
2248.27	0.16
2248.58	-0.84
2248.9	-0.84
2249.21	-0.84
2249.52	-1
2249.83	-0.8
2250.15	0.2
2250.46	0.2
2250.77	0.2
2251.09	0.2
2251.4	0
2251.71	0.04
2252.03	0.08
2252.34	0.08
2252.65	0.08
2252.96	0.28
2253.28	0.24
2253.59	0.2
2253.9	0.2
2254.21	0.2
2254.53	0
2254.84	-0.4
2255.15	-0.32
2255.47	-0.32
2255.78	-0.32
2256.09	-0.32
2256.4	0.08
2256.72	0.08
2257.03	0.28
2257.34	0.28
2257.65	0.28
2257.97	0.32
2258.28	0.24
2258.59	0.04
2258.9	0.04
2259.22	0.04
2259.53	0
2259.84	0
2260.15	0
2260.46	0
2260.78	0
2261.09	0
2261.4	0
2261.71	0
2262.03	0
2262.34	0.08
2262.65	0.08
2262.96	0.08
2263.27	0.24
2263.59	0.24
2263.9	0.2
2264.21	0.2
2264.52	0.2
2264.83	0.48
2265.15	0.48
2265.46	0.44
2265.77	0.48
2266.08	0.48
2266.39	0.04
2266.7	0.04
2267.02	0.04
2267.33	-0.4
2267.64	-0.4
2267.95	-0.4
2268.26	-0.4
2268.57	-0.4
2268.89	0.32
2269.2	0.32
2269.51	0.32
2269.82	0.32
2270.13	0.48
2270.44	0.2
2270.76	-0.2
2271.07	-0.2
2271.38	-0.8
2271.69	-0.96
2272	-0.88
2272.31	-0.6
2272.62	-1.4
2272.93	-0.8
2273.25	-0.8
2273.56	-0.92
2273.87	-0.68
2274.18	0.12
2274.49	0.2
2274.8	0.2
2275.11	0.2
2275.42	0.08
2275.74	0.08
2276.05	0
2276.36	0
2276.67	0
2276.98	0
2277.29	0
2277.6	0
2277.91	0.04
2278.22	-0.36
2278.53	-0.36
2278.85	-0.36
2279.16	-1.36
2279.47	-1.4
2279.78	-1
2280.09	-0.92
2280.4	-0.92
2280.71	0.08
2281.02	0.08
2281.33	0.08
2281.64	0
2281.95	0
2282.26	0
2282.57	0
2282.88	0
2283.19	0
2283.5	0.2
2283.82	0.2
2284.13	0.24
2284.44	0.24
2284.75	-0.36
2285.06	-0.56
2285.37	-0.56
2285.68	-0.6
2285.99	-0.6
2286.3	0
2286.61	0
2286.92	0.12
2287.23	0.2
2287.54	0.2
2287.85	0.28
2288.16	0.28
2288.47	0.2
2288.78	0.16
2289.09	0.16
2289.4	0.08
2289.71	0.12
2290.02	0.2
2290.33	0.16
2290.64	0.16
2290.95	0.28
2291.26	0.4
2291.57	0.28
2291.88	-0.12
2292.19	-0.12
2292.5	-0.24
2292.81	-0.4
2293.12	-0.4
2293.43	0
2293.74	0
2294.05	0
2294.36	0
2294.67	0
2294.98	0
2295.29	0
2295.6	0
2295.91	0
2296.21	0
2296.52	0
2296.83	0
2297.14	0
2297.45	0
2297.76	0
2298.07	0
2298.38	0
2298.69	0
2299	0
2299.31	0
2299.62	0
2299.93	0
2300.24	0
2300.55	0
2300.85	0
2301.16	0
2301.47	0
2301.78	0
2302.09	0
2302.4	0
2302.71	0
2303.02	0
2303.33	0
2303.64	0
2303.94	0
2304.25	0
2304.56	0
2304.87	0
2305.18	0
2305.49	0
2305.8	0
2306.11	0
2306.42	0
2306.72	0
2307.03	0
2307.34	0
2307.65	0
2307.96	0
2308.27	0
2308.58	0
2308.88	0
2309.19	0
2309.5	0
2309.81	0
2310.12	0
2310.43	0
2310.74	0
2311.04	0
2311.35	0
2311.66	0
2311.97	0
2312.28	0
2312.59	0
2312.89	0
2313.2	0
2313.51	0
2313.82	0
2314.13	0
2314.43	0
2314.74	0
2315.05	0
2315.36	0
2315.67	0
2315.97	0
2316.28	0
2316.59	0
2316.9	0
2317.21	0
2317.51	0
2317.82	0
2318.13	0
2318.44	0
2318.75	0
2319.05	0
2319.36	0
2319.67	0
2319.98	0
2320.28	0
2320.59	0
2320.9	0
2321.21	0
2321.51	0
2321.82	0
2322.13	0
2322.44	0
2322.74	0
2323.05	0
2323.36	0
2323.67	0
2323.97	0
2324.28	0
2324.59	0
2324.9	0
2325.2	0
2325.51	0
2325.82	0
2326.13	0
2326.43	0
2326.74	0
2327.05	0
2327.35	0
2327.66	0
2327.97	0
2328.27	0
2328.58	0
2328.89	0
2329.2	0
2329.5	0
2329.81	0
2330.12	0
2330.42	0
2330.73	0
2331.04	0
2331.34	0
2331.65	0
2331.96	0
2332.26	0
2332.57	0
2332.88	0
2333.18	0
2333.49	0
2333.8	0
2334.1	0
2334.41	0
2334.72	0
2335.02	0
2335.33	0
2335.64	0
2335.94	0
2336.25	0
2336.56	0
2336.86	0
2337.17	0
2337.48	0
2337.78	0
2338.09	0
2338.39	0
2338.7	0
2339.01	0
2339.31	0
2339.62	0
2339.93	0
2340.23	0
2340.54	0
2340.84	0
2341.15	0
2341.46	0
2341.76	0
2342.07	0
2342.37	0
2342.68	0
2342.99	0
2343.29	0
2343.6	0
2343.9	0
2344.21	0
2344.51	0
2344.82	0
2345.13	0
2345.43	0
2345.74	0
2346.04	0
2346.35	0
2346.65	0
2346.96	0
2347.27	0
2347.57	0
2347.88	0
2348.18	0
2348.49	0
2348.79	0
2349.1	0
2349.4	0
2349.71	0
2350.01	0
2350.32	0
2350.63	0
2350.93	0
2351.24	0
2351.54	0
2351.85	0
2352.15	0
2352.46	0
2352.76	0
2353.07	0
2353.37	0
2353.68	0
2353.98	0
2354.29	0
2354.59	0
2354.9	0
2355.2	0
2355.51	0
2355.81	0
2356.12	0
2356.42	0
2356.73	0
2357.03	0
2357.34	0
2357.64	0
2357.95	0
2358.25	0
2358.55	0
2358.86	0
2359.16	0
2359.47	0
2359.77	0
2360.08	0
2360.38	0
2360.69	0
2360.99	0
2361.3	0
2361.6	0
2361.9	0
2362.21	0
2362.51	0
2362.82	0
2363.12	0
2363.43	0
2363.73	0
2364.04	0
2364.34	0
2364.64	0
2364.95	0
2365.25	0
2365.56	0
2365.86	0
2366.16	0
2366.47	0
2366.77	0
2367.08	0
2367.38	0
2367.68	0
2367.99	0
2368.29	0
2368.6	0
2368.9	0
2369.2	0
2369.51	0
2369.81	0
2370.12	0
2370.42	0
2370.72	0
2371.03	0
2371.33	0
2371.63	0
2371.94	0
2372.24	0
2372.55	0
2372.85	0
2373.15	0
2373.46	0
2373.76	0
2374.06	0
2374.37	0
2374.67	0
2374.97	0
2375.28	0
2375.58	0
2375.88	0
2376.19	0
2376.49	0
2376.79	0
2377.1	0
2377.4	0
2377.7	0
2378.01	0
2378.31	0
2378.61	0
2378.92	0
2379.22	0
2379.52	0
2379.82	0
2380.13	0
2380.43	0
2380.73	0
2381.04	0
2381.34	0
2381.64	0
2381.95	0
2382.25	0
2382.55	0
2382.85	0
2383.16	0
2383.46	0
2383.76	0
2384.06	0
2384.37	0
2384.67	0
2384.97	0
2385.28	0
2385.58	0
2385.88	0
2386.18	0
2386.49	0
2386.79	0
2387.09	0
2387.39	0
2387.69	0
2388	0
2388.3	0
2388.6	0
2388.9	0
2389.21	0
2389.51	0
2389.81	0
2390.11	0
2390.42	0
2390.72	0
2391.02	0
2391.32	0
2391.62	0
2391.93	0
2392.23	0
2392.53	0
2392.83	0
2393.13	0
2393.44	0
2393.74	0
2394.04	0
2394.34	0
2394.64	0
2394.95	0
2395.25	0
2395.55	0
2395.85	0
2396.15	0
2396.45	0
2396.76	0
2397.06	0
2397.36	0
2397.66	0
2397.96	0
2398.26	0
2398.57	0
2398.87	0
2399.17	0
2399.47	0
2399.77	0
2400.07	0
2400.37	0
2400.68	0
2400.98	0
2401.28	0
2401.58	0
2401.88	0
2402.18	0
2402.48	0
2402.79	0
2403.09	0
2403.39	0
2403.69	0
2403.99	0
2404.29	0
2404.59	0
2404.89	0
2405.19	0
2405.5	0
2405.8	0
2406.1	0
2406.4	0
2406.7	0
2407	0
2407.3	0
2407.6	0
2407.9	0
2408.2	0
2408.5	0
2408.8	0
2409.11	0
2409.41	0
2409.71	0
2410.01	0
2410.31	0
2410.61	0
2410.91	0
2411.21	0
2411.51	0
2411.81	0
2412.11	0
2412.41	0
2412.71	0
2413.01	0
2413.31	0
2413.61	0
2413.91	0
2414.21	0
2414.51	0
2414.81	0
2415.12	0
2415.42	0
2415.72	0
2416.02	0
2416.32	0
2416.62	0
2416.92	0
2417.22	0
2417.52	0
2417.82	0
2418.12	0
2418.42	0
2418.72	0
2419.02	0
2419.32	0
2419.62	0
2419.92	0
2420.22	0
2420.52	0
2420.82	0
2421.12	0
2421.42	0
2421.71	0
2422.01	0
2422.31	0
2422.61	0
2422.91	0
2423.21	0
2423.51	0
2423.81	0
2424.11	0
2424.41	0
2424.71	0
2425.01	0
2425.31	0
2425.61	0
2425.91	0
2426.21	0
2426.51	0
2426.81	0
2427.11	0
2427.41	0
2427.7	0
2428	0
2428.3	0
2428.6	0
2428.9	0
2429.2	0
2429.5	0
2429.8	0
2430.1	0
2430.4	0
2430.7	0
2430.99	0
2431.29	0
2431.59	0
2431.89	0
2432.19	0
2432.49	0
2432.79	0
2433.09	0
2433.39	0
2433.68	0
2433.98	0
2434.28	0
2434.58	0
2434.88	0
2435.18	0
2435.48	0
2435.78	0
2436.07	0
2436.37	0
2436.67	0
2436.97	0
2437.27	0
2437.57	0
2437.86	0
2438.16	0
2438.46	0
2438.76	0
2439.06	0
2439.36	0
2439.66	0
2439.95	0
2440.25	0
2440.55	0
2440.85	0
2441.15	0
2441.44	0
2441.74	0
2442.04	0
2442.34	0
2442.64	0
2442.93	0
2443.23	0
2443.53	0
2443.83	0
2444.13	0
2444.42	0
2444.72	0
2445.02	0
2445.32	0
2445.62	0
2445.91	0
2446.21	0
2446.51	0
2446.81	0
2447.1	0
2447.4	0
2447.7	0
2448	0
2448.3	0
2448.59	0
2448.89	0
2449.19	0
2449.49	0
2449.78	0
2450.08	0
2450.38	0
2450.68	0
2450.97	0
2451.27	0
2451.57	0
2451.87	0
2452.16	0
2452.46	0
2452.76	0
2453.05	0
2453.35	0
2453.65	0
2453.95	0
2454.24	0
2454.54	0
2454.84	0
2455.13	0
2455.43	0
2455.73	0
2456.03	0
2456.32	0
2456.62	0
2456.92	0
2457.21	0
2457.51	0
2457.81	0
2458.1	0
2458.4	0
2458.7	0
2458.99	0
2459.29	0
2459.59	0
2459.88	0
2460.18	0
2460.48	0
2460.77	0
2461.07	0
2461.37	0
2461.66	0
2461.96	0
2462.26	0
2462.55	0
2462.85	0
2463.15	0
2463.44	0
2463.74	0
2464.04	0
2464.33	0
2464.63	0
2464.92	0
2465.22	0
2465.52	0
2465.81	0
2466.11	0
2466.41	0
2466.7	0
2467	0
2467.29	0
2467.59	0
2467.89	0
2468.18	0
2468.48	0
2468.77	0
2469.07	0
2469.37	0
2469.66	0
2469.96	0
2470.25	0
2470.55	0
2470.84	0
2471.14	0
2471.44	0
2471.73	0
2472.03	0
2472.32	0
2472.62	0
2472.91	0
2473.21	0
2473.51	0
2473.8	0
2474.1	0
2474.39	0
2474.69	0
2474.98	0
2475.28	0
2475.57	0
2475.87	0
2476.17	0
2476.46	0
2476.76	0
2477.05	0
2477.35	0
2477.64	0
2477.94	0
2478.23	0
2478.53	0
2478.82	0
2479.12	0
2479.41	0
2479.71	0
2480	0
2480.3	0
2480.59	0
2480.89	0
2481.18	0
2481.48	0
2481.77	0
2482.07	0
2482.36	0
2482.66	0
2482.95	0
2483.25	0
2483.54	0
2483.84	0
2484.13	0
2484.43	0
2484.72	0
2485.02	0
2485.31	0
2485.6	0
2485.9	0
2486.19	0
2486.49	0
2486.78	0
2487.08	0
2487.37	0
2487.67	0
2487.96	0
2488.26	0
2488.55	0
2488.84	0
2489.14	0
2489.43	0
2489.73	0
2490.02	0
2490.32	0
2490.61	0
2490.9	0
2491.2	0
2491.49	0
2491.79	0
2492.08	0
2492.37	0
2492.67	0
2492.96	0
2493.26	0
2493.55	0
2493.84	0
2494.14	0
2494.43	0
2494.73	0
2495.02	0
2495.31	0
2495.61	0
2495.9	0
2496.2	0
2496.49	0
2496.78	0
2497.08	0
2497.37	0
2497.66	0
2497.96	0
2498.25	0
2498.54	0
2498.84	0
2499.13	0
2499.43	0
2499.72	0
2500.01	0
2500.31	0
2500.6	0
2500.89	0
2501.19	0
2501.48	0
2501.77	0
2502.07	0
2502.36	0
2502.65	0
2502.95	0
2503.24	0
2503.53	0
2503.82	0
2504.12	0
2504.41	0
2504.7	0
2505	0
2505.29	0
2505.58	0
2505.88	0
2506.17	0
2506.46	0
2506.76	0
2507.05	0
2507.34	0
2507.63	0
2507.93	0
2508.22	0
2508.51	0
2508.8	0
2509.1	0
2509.39	0
2509.68	0
2509.98	0
2510.27	0
2510.56	0
2510.85	0
2511.15	0
2511.44	0
2511.73	0
2512.02	0
2512.32	0
2512.61	0
2512.9	0
2513.19	0
2513.49	0
2513.78	0
2514.07	0
2514.36	0
2514.65	0
2514.95	0
2515.24	0
2515.53	0
2515.82	0
2516.12	0
2516.41	0
2516.7	0
2516.99	0
2517.28	0
2517.58	0
2517.87	0
2518.16	0
2518.45	0
2518.74	0
2519.04	0
2519.33	0
2519.62	0
2519.91	0
2520.2	0
2520.5	0
2520.79	0
2521.08	0
2521.37	0
2521.66	0
2521.95	0
2522.25	0
2522.54	0
2522.83	0
2523.12	0
2523.41	0
2523.7	0
2523.99	0
2524.29	0
2524.58	0
2524.87	0
2525.16	0
2525.45	0
2525.74	0
2526.03	0
2526.33	0
2526.62	0
2526.91	0
2527.2	0
2527.49	0
2527.78	0
2528.07	0
2528.36	0
2528.66	0
2528.95	0
2529.24	0
2529.53	0
2529.82	0
2530.11	0
2530.4	0
2530.69	0
2530.98	0
2531.27	0
2531.57	0
2531.86	0
2532.15	0
2532.44	0
2532.73	0
2533.02	0
2533.31	0
2533.6	0
2533.89	0
2534.18	0
2534.47	0
2534.76	0
2535.05	0
2535.35	0
2535.64	0
2535.93	0
2536.22	0
2536.51	0
2536.8	0
2537.09	0
2537.38	0
2537.67	0
2537.96	0
2538.25	0
2538.54	0
2538.83	0
2539.12	0
2539.41	0
2539.7	0
2539.99	0
2540.28	0
2540.57	0
2540.86	0
2541.15	0
2541.44	0
2541.73	0
2542.02	0
2542.31	0
2542.6	0
2542.89	0
2543.18	0
2543.47	0
2543.76	0
2544.05	0
2544.34	0
2544.63	0
2544.92	0
2545.21	0
2545.5	0
2545.79	0
2546.08	0
2546.37	0
2546.66	0
2546.95	0
2547.24	0
2547.53	0
2547.82	0
2548.11	0
2548.4	0
2548.69	0
2548.98	0
2549.27	0
2549.55	0
2549.84	0
2550.13	0
2550.42	0
2550.71	0
2551	0
2551.29	0
2551.58	0
2551.87	0
2552.16	0
2552.45	0
2552.74	0
2553.03	0
2553.31	0
2553.6	0
2553.89	0
2554.18	0
2554.47	0
2554.76	0
2555.05	0
2555.34	0
2555.63	0
2555.92	0
2556.2	0
2556.49	0
2556.78	0
2557.07	0
2557.36	0
2557.65	0
2557.94	0
2558.23	0
2558.51	0
2558.8	0
2559.09	0
2559.38	0
2559.67	0
2559.96	0
2560.25	0
2560.53	0
2560.82	0
2561.11	0
2561.4	0
2561.69	0
2561.98	0
2562.27	0
2562.55	0
2562.84	0
2563.13	0
2563.42	0
2563.71	0
2564	0
2564.28	0
2564.57	0
2564.86	0
2565.15	0
2565.44	0
2565.72	0
2566.01	0
2566.3	0
2566.59	0
2566.88	0
2567.16	0
2567.45	0
2567.74	0
2568.03	0
2568.32	0
2568.6	0
2568.89	0
2569.18	0
2569.47	0
2569.75	0

