Source: Spectrum Viewer

Chart: Pulse Spectrum

Series: 
Wavelength (nm)	S (a.u.)
1179.9	0
1180.29	0
1180.68	0
1181.06	0
1181.45	0
1181.83	0
1182.22	0
1182.6	0
1182.99	0
1183.38	0
1183.76	0
1184.15	0
1184.53	0
1184.92	0
1185.3	0
1185.69	0
1186.07	0
1186.46	0
1186.85	0
1187.23	0
1187.62	0
1188	0
1188.39	0
1188.77	0
1189.16	0
1189.54	0
1189.93	0
1190.31	0
1190.7	0
1191.08	0
1191.47	0
1191.85	0
1192.24	0
1192.62	0
1193.01	0
1193.39	0
1193.78	0
1194.16	0
1194.55	0
1194.93	0
1195.32	0
1195.7	0
1196.09	0
1196.47	0
1196.86	0
1197.24	0
1197.63	0
1198.01	0
1198.4	0
1198.78	0
1199.16	0
1199.55	0
1199.93	0
1200.32	0
1200.7	0
1201.09	0
1201.47	0
1201.86	0
1202.24	0
1202.63	0
1203.01	0
1203.39	0
1203.78	0
1204.16	0
1204.55	0
1204.93	0
1205.32	0
1205.7	0
1206.08	0
1206.47	0
1206.85	0
1207.24	0
1207.62	0
1208	0
1208.39	0
1208.77	0
1209.16	0
1209.54	0
1209.92	0
1210.31	0
1210.69	0
1211.08	0
1211.46	0
1211.84	0
1212.23	0
1212.61	0
1213	0
1213.38	0
1213.76	0
1214.15	0
1214.53	0
1214.91	0
1215.3	0
1215.68	0
1216.06	0
1216.45	0
1216.83	0
1217.22	0
1217.6	0
1217.98	0
1218.37	0
1218.75	0
1219.13	0
1219.52	0
1219.9	0
1220.28	0
1220.67	0
1221.05	0
1221.43	0
1221.82	0
1222.2	0
1222.58	0
1222.97	0
1223.35	0
1223.73	0
1224.11	0
1224.5	0
1224.88	0
1225.26	0
1225.65	0
1226.03	0
1226.41	0
1226.8	0
1227.18	0
1227.56	0
1227.94	0
1228.33	0
1228.71	0
1229.09	0
1229.47	0
1229.86	0
1230.24	0
1230.62	0
1231.01	0
1231.39	0
1231.77	0
1232.15	0
1232.54	0
1232.92	0
1233.3	0
1233.68	0
1234.07	0
1234.45	0
1234.83	0
1235.21	0
1235.6	0
1235.98	0
1236.36	0
1236.74	0
1237.12	0
1237.51	0
1237.89	0
1238.27	0
1238.65	0
1239.04	0
1239.42	0
1239.8	0
1240.18	0
1240.56	0
1240.95	0
1241.33	0
1241.71	0
1242.09	0
1242.47	0
1242.86	0
1243.24	0
1243.62	0
1244	0
1244.38	0
1244.77	0
1245.15	0
1245.53	0
1245.91	0
1246.29	0
1246.67	0
1247.06	0
1247.44	0
1247.82	0
1248.2	0
1248.58	0
1248.96	0
1249.34	0
1249.73	0
1250.11	0
1250.49	0
1250.87	0
1251.25	0
1251.63	0
1252.01	0
1252.4	0
1252.78	0
1253.16	0
1253.54	0
1253.92	0
1254.3	0
1254.68	0
1255.06	0
1255.45	0
1255.83	0
1256.21	0
1256.59	0
1256.97	0
1257.35	0
1257.73	0
1258.11	0
1258.49	0
1258.87	0
1259.26	0
1259.64	0
1260.02	0
1260.4	0
1260.78	0
1261.16	0
1261.54	0
1261.92	0
1262.3	0
1262.68	0
1263.06	0
1263.44	0
1263.82	0
1264.21	0
1264.59	0
1264.97	0
1265.35	0
1265.73	0
1266.11	0
1266.49	0
1266.87	0
1267.25	0
1267.63	0
1268.01	0
1268.39	0
1268.77	0
1269.15	0
1269.53	0
1269.91	0
1270.29	0
1270.67	0
1271.05	0
1271.43	0
1271.81	0
1272.19	0
1272.57	0
1272.95	0
1273.33	0
1273.71	0
1274.09	0
1274.47	0
1274.85	0
1275.23	0
1275.61	0
1275.99	0
1276.37	0
1276.75	0
1277.13	0
1277.51	0
1277.89	0
1278.27	0
1278.65	0
1279.03	0
1279.41	0
1279.79	0
1280.17	0
1280.55	0
1280.93	0
1281.31	0
1281.69	0
1282.07	0
1282.45	0
1282.82	0
1283.2	0
1283.58	0
1283.96	0
1284.34	0
1284.72	0
1285.1	0
1285.48	0
1285.86	0
1286.24	0
1286.62	0
1287	0
1287.38	0
1287.75	0
1288.13	0
1288.51	0
1288.89	0
1289.27	0
1289.65	0
1290.03	0
1290.41	0
1290.79	0
1291.17	0
1291.54	0
1291.92	0
1292.3	0
1292.68	0
1293.06	0
1293.44	0
1293.82	0
1294.2	0
1294.57	0
1294.95	0
1295.33	0
1295.71	0
1296.09	0
1296.47	0
1296.85	0
1297.22	0
1297.6	0
1297.98	0
1298.36	0
1298.74	0
1299.12	0
1299.5	0
1299.87	0
1300.25	0
1300.63	0
1301.01	0
1301.39	0
1301.77	0
1302.14	0
1302.52	0
1302.9	0
1303.28	0
1303.66	0
1304.03	0
1304.41	0
1304.79	0
1305.17	0
1305.55	0
1305.92	0
1306.3	0
1306.68	0
1307.06	0
1307.44	0
1307.81	0
1308.19	0
1308.57	0
1308.95	0
1309.32	0
1309.7	0
1310.08	0
1310.46	0
1310.84	0
1311.21	0
1311.59	0
1311.97	0
1312.35	0
1312.72	0
1313.1	0
1313.48	0
1313.86	0
1314.23	0
1314.61	0
1314.99	0
1315.37	0
1315.74	0
1316.12	0
1316.5	0
1316.87	0
1317.25	0
1317.63	0
1318.01	0
1318.38	0
1318.76	0
1319.14	0
1319.52	0
1319.89	0
1320.27	0
1320.65	0
1321.02	0
1321.4	0
1321.78	0
1322.15	0
1322.53	0
1322.91	0
1323.29	0
1323.66	0
1324.04	0
1324.42	0
1324.79	0
1325.17	0
1325.55	0
1325.92	0
1326.3	0
1326.68	0
1327.05	0
1327.43	0
1327.81	0
1328.18	0
1328.56	0
1328.94	0
1329.31	0
1329.69	0
1330.06	0
1330.44	0
1330.82	0
1331.19	0
1331.57	0
1331.95	0
1332.32	0
1332.7	0
1333.08	0
1333.45	0
1333.83	0
1334.2	0
1334.58	0
1334.96	0
1335.33	0
1335.71	0
1336.08	0
1336.46	0
1336.84	0
1337.21	0
1337.59	0
1337.96	0
1338.34	0
1338.72	0
1339.09	0
1339.47	0
1339.84	0
1340.22	0
1340.6	0
1340.97	0
1341.35	0
1341.72	0
1342.1	0
1342.47	0
1342.85	0
1343.23	0
1343.6	0
1343.98	0
1344.35	0
1344.73	0
1345.1	0
1345.48	0
1345.85	0
1346.23	0
1346.61	0
1346.98	0
1347.36	0
1347.73	0
1348.11	0
1348.48	0
1348.86	0
1349.23	0
1349.61	0
1349.98	0
1350.36	0
1350.73	0
1351.11	0
1351.48	0
1351.86	0
1352.23	0
1352.61	0
1352.98	0
1353.36	0
1353.73	0
1354.11	0
1354.48	0
1354.86	0
1355.23	0
1355.61	0
1355.98	0
1356.36	0
1356.73	0
1357.11	0
1357.48	0
1357.86	0
1358.23	0
1358.61	0
1358.98	0
1359.35	0
1359.73	0
1360.1	0
1360.48	0
1360.85	0
1361.23	0
1361.6	0
1361.98	0
1362.35	0
1362.72	0
1363.1	0
1363.47	0
1363.85	0
1364.22	0
1364.6	0
1364.97	0
1365.34	0
1365.72	0
1366.09	0
1366.47	0
1366.84	0
1367.22	0
1367.59	0
1367.96	0
1368.34	0
1368.71	0
1369.09	0
1369.46	-1
1369.83	-0.8
1370.21	-0.56
1370.58	-0.48
1370.96	-0.48
1371.33	0.52
1371.7	0.32
1372.08	0.56
1372.45	0.52
1372.82	0.68
1373.2	0.68
1373.57	0.68
1373.95	0.2
1374.32	0.16
1374.69	0
1375.07	0.08
1375.44	0.08
1375.81	0.08
1376.19	0.28
1376.56	0.4
1376.93	0.44
1377.31	0.44
1377.68	0.44
1378.05	0.32
1378.43	0.2
1378.8	0.28
1379.17	0.28
1379.55	0.6
1379.92	0.52
1380.29	0.52
1380.67	0.72
1381.04	0.72
1381.41	0.4
1381.79	0.4
1382.16	0.4
1382.53	0.04
1382.91	-0.96
1383.28	-0.8
1383.65	-0.8
1384.03	-0.8
1384.4	-0.8
1384.77	0.24
1385.14	0.08
1385.52	0.36
1385.89	0.36
1386.26	0.32
1386.64	0.28
1387.01	0.32
1387.38	0.24
1387.75	0.4
1388.13	0.4
1388.5	0.6
1388.87	0.76
1389.25	0.56
1389.62	0.2
1389.99	0.04
1390.36	-0.16
1390.74	-0.28
1391.11	-0.12
1391.48	0.08
1391.85	0.68
1392.23	0.72
1392.6	0.64
1392.97	0.92
1393.34	1.08
1393.72	0.64
1394.09	0.8
1394.46	0.84
1394.83	0.44
1395.21	0.28
1395.58	0.28
1395.95	0.08
1396.32	0.04
1396.69	0
1397.07	0
1397.44	0
1397.81	0.12
1398.18	0.44
1398.55	0.76
1398.93	0.8
1399.3	0.84
1399.67	0.72
1400.04	0.48
1400.41	0.16
1400.79	0.4
1401.16	0.36
1401.53	0.36
1401.9	0.32
1402.27	0.32
1402.65	0.04
1403.02	0.28
1403.39	0.52
1403.76	0.08
1404.13	0.2
1404.51	0.52
1404.88	0.4
1405.25	0.32
1405.62	0.72
1405.99	0.68
1406.36	0.48
1406.74	0.48
1407.11	0.44
1407.48	0.56
1407.85	-0.72
1408.22	-0.84
1408.59	-0.96
1408.96	-0.96
1409.34	-1.08
1409.71	0.12
1410.08	0.12
1410.45	0.12
1410.82	0
1411.19	0.04
1411.56	0.08
1411.93	0.08
1412.31	0.4
1412.68	0.48
1413.05	0.52
1413.42	0.48
1413.79	0.48
1414.16	-0.04
1414.53	-0.12
1414.9	-0.36
1415.27	-0.36
1415.65	-0.16
1416.02	0.08
1416.39	0.16
1416.76	0.32
1417.13	0.32
1417.5	0.48
1417.87	0.64
1418.24	0.56
1418.61	0.56
1418.98	0.56
1419.35	0.2
1419.73	0.28
1420.1	0.32
1420.47	0.4
1420.84	0.44
1421.21	0.44
1421.58	0.2
1421.95	0.36
1422.32	0.36
1422.69	0.32
1423.06	0.36
1423.43	0.32
1423.8	0.12
1424.17	0.12
1424.54	0.12
1424.91	0.24
1425.28	0.28
1425.65	0.32
1426.02	0.4
1426.39	0.52
1426.76	-0.08
1427.14	6.66107e-18
1427.51	-0.04
1427.88	-0.2
1428.25	-0.32
1428.62	0.12
1428.99	0.08
1429.36	0.12
1429.73	0.12
1430.1	0.12
1430.47	0.4
1430.84	0.32
1431.21	0.28
1431.58	0.4
1431.95	0.52
1432.32	0.04
1432.69	0.08
1433.06	0.2
1433.43	0.08
1433.8	0.24
1434.17	0.44
1434.54	0.6
1434.91	0.48
1435.28	0.6
1435.64	0.36
1436.01	-0.24
1436.38	-0.4
1436.75	-0.04
1437.12	-0.16
1437.49	0
1437.86	0.8
1438.23	0.88
1438.6	0.52
1438.97	0.52
1439.34	0.32
1439.71	0.12
1440.08	0.28
1440.45	0.64
1440.82	0.44
1441.19	0.44
1441.56	0.44
1441.93	0.24
1442.3	-0.12
1442.67	-1.52
1443.03	-1.52
1443.4	-1.52
1443.77	-1.6
1444.14	-1.6
1444.51	0.08
1444.88	0.24
1445.25	0.32
1445.62	0.44
1445.99	0.44
1446.36	0.56
1446.73	0.64
1447.09	0.56
1447.46	0.48
1447.83	0.56
1448.2	0.4
1448.57	0.12
1448.94	0.56
1449.31	0.52
1449.68	0.96
1450.05	1.28
1450.41	1.36
1450.78	0.92
1451.15	1.28
1451.52	0.8
1451.89	0.44
1452.26	0.4
1452.63	0.44
1453	0.12
1453.36	0.08
1453.73	0.08
1454.1	0.08
1454.47	0.48
1454.84	0.44
1455.21	0.64
1455.57	0.24
1455.94	0.24
1456.31	-0.2
1456.68	-0.2
1457.05	-0.32
1457.42	0.24
1457.78	0.48
1458.15	0.48
1458.52	0.48
1458.89	0.4
1459.26	0.48
1459.63	0.28
1459.99	0.28
1460.36	0.28
1460.73	0.4
1461.1	0.28
1461.47	0.24
1461.83	0.32
1462.2	0.48
1462.57	0.36
1462.94	0.24
1463.31	0.24
1463.67	0.16
1464.04	-0.2
1464.41	-0.2
1464.78	-0.8
1465.15	-0.8
1465.51	-0.8
1465.88	-0.6
1466.25	-0.32
1466.62	0.28
1466.98	0.36
1467.35	0.4
1467.72	0.44
1468.09	0.16
1468.46	0.48
1468.82	0.4
1469.19	0.4
1469.56	0.4
1469.93	0.4
1470.29	0.16
1470.66	0.76
1471.03	0.84
1471.4	0.96
1471.76	0.96
1472.13	0.88
1472.5	0.28
1472.86	0.16
1473.23	0.04
1473.6	0.36
1473.97	0.36
1474.33	0.68
1474.7	0.84
1475.07	0.8
1475.44	0.52
1475.8	0.32
1476.17	0.04
1476.54	-0.08
1476.9	0.12
1477.27	0.08
1477.64	0.6
1478	0.56
1478.37	0.52
1478.74	0.36
1479.11	0.4
1479.47	0.16
1479.84	0.28
1480.21	0.28
1480.57	0.24
1480.94	0.24
1481.31	0.4
1481.67	0.28
1482.04	0.28
1482.41	0.48
1482.77	0.52
1483.14	0.28
1483.51	0.32
1483.87	0.32
1484.24	0.12
1484.61	0.44
1484.97	0.56
1485.34	0.56
1485.71	-0.44
1486.07	-0.32
1486.44	-0.72
1486.81	-0.84
1487.17	-0.88
1487.54	0.16
1487.9	0.44
1488.27	0.44
1488.64	0.28
1489	0.28
1489.37	0.32
1489.74	0.32
1490.1	0.32
1490.47	0.52
1490.83	0.52
1491.2	0.44
1491.57	0.04
1491.93	0.04
1492.3	0.28
1492.66	0.4
1493.03	0.4
1493.4	0.44
1493.76	0.44
1494.13	0.16
1494.49	0.12
1494.86	0.16
1495.23	0.72
1495.59	0.72
1495.96	-0.68
1496.32	-0.76
1496.69	-0.8
1497.06	-1.4
1497.42	-2.16
1497.79	-0.68
1498.15	-0.68
1498.52	-0.68
1498.88	-0.68
1499.25	0.08
1499.62	-0.4
1499.98	-0.4
1500.35	-0.2
1500.71	-0.2
1501.08	-0.04
1501.44	0.4
1501.81	0.68
1502.17	0.48
1502.54	0.48
1502.9	0.32
1503.27	0.32
1503.64	0.12
1504	0.12
1504.37	0.12
1504.73	0.12
1505.1	0.2
1505.46	0.2
1505.83	0.2
1506.19	0.2
1506.56	0.28
1506.92	0.16
1507.29	0.12
1507.65	0.12
1508.02	0.24
1508.38	0.4
1508.75	0.4
1509.11	0.36
1509.48	0.36
1509.84	0.28
1510.21	0.36
1510.57	0.36
1510.94	0.36
1511.3	0.36
1511.67	0.32
1512.03	0.08
1512.4	0.4
1512.76	0.52
1513.13	-0.48
1513.49	-0.68
1513.85	-0.76
1514.22	-1
1514.58	-1.12
1514.95	-0.12
1515.31	0.08
1515.68	0.16
1516.04	0.08
1516.41	0.12
1516.77	0.12
1517.14	0.12
1517.5	0.2
1517.86	0.48
1518.23	0.52
1518.59	0.52
1518.96	0.52
1519.32	0.4
1519.69	0.12
1520.05	0.04
1520.41	0.04
1520.78	0.76
1521.14	0.72
1521.51	0.72
1521.87	0.72
1522.24	0.72
1522.6	0
1522.96	0
1523.33	0
1523.69	0
1524.06	0.08
1524.42	0.4
1524.78	0.4
1525.15	0.4
1525.51	0.88
1525.88	0.84
1526.24	0.52
1526.6	0.56
1526.97	0.56
1527.33	0.16
1527.69	0.12
1528.06	0.44
1528.42	0.92
1528.79	0.92
1529.15	0.04
1529.51	0.04
1529.88	-0.28
1530.24	-0.8
1530.6	-0.64
1530.97	0.16
1531.33	0.16
1531.69	0.24
1532.06	0.24
1532.42	0.08
1532.78	0.08
1533.15	0.16
1533.51	0.36
1533.87	0.36
1534.24	0.48
1534.6	0.48
1534.96	0.48
1535.33	0.2
1535.69	0.4
1536.05	0.28
1536.42	0.28
1536.78	0.2
1537.14	0.2
1537.51	0
1537.87	0
1538.23	0
1538.6	0.08
1538.96	0.12
1539.32	0.12
1539.68	0.12
1540.05	0.12
1540.41	0.04
1540.77	0
1541.14	0
1541.5	0
1541.86	0
1542.23	0.36
1542.59	0.6
1542.95	0.6
1543.31	0.6
1543.68	0.76
1544.04	0.4
1544.4	0.16
1544.76	0.36
1545.13	0.36
1545.49	0.36
1545.85	0.36
1546.21	0.48
1546.58	0.28
1546.94	0.4
1547.3	0.24
1547.66	0.24
1548.03	0.12
1548.39	0.2
1548.75	0.12
1549.11	0.16
1549.48	0.48
1549.84	0.52
1550.2	0.44
1550.56	0.4
1550.93	0.4
1551.29	0.08
1551.65	0.04
1552.01	0.04
1552.37	0.12
1552.74	0.12
1553.1	0.4
1553.46	0.64
1553.82	0.64
1554.18	0.56
1554.55	0.96
1554.91	0.68
1555.27	0.44
1555.63	0.44
1555.99	0.44
1556.36	0.12
1556.72	-1.48
1557.08	-1.28
1557.44	-1.28
1557.8	-1.12
1558.17	-1.12
1558.53	0.64
1558.89	0.72
1559.25	0.72
1559.61	0.68
1559.97	0.72
1560.34	0.56
1560.7	0.28
1561.06	0.36
1561.42	0.24
1561.78	0.08
1562.14	-0.24
1562.5	-0.24
1562.87	-0.32
1563.23	-0.16
1563.59	-0.2
1563.95	0.52
1564.31	0.64
1564.67	0.88
1565.03	0.76
1565.4	0.8
1565.76	0.48
1566.12	0.36
1566.48	0.12
1566.84	0.48
1567.2	0.48
1567.56	0.2
1567.92	0.36
1568.29	0.4
1568.65	0.24
1569.01	0.28
1569.37	0.08
1569.73	0.08
1570.09	0.44
1570.45	0.24
1570.81	0.44
1571.17	0.84
1571.53	1.04
1571.89	0.64
1572.26	0.96
1572.62	1.04
1572.98	1.04
1573.34	0.68
1573.7	0.84
1574.06	0.8
1574.42	0.48
1574.78	0.44
1575.14	0.72
1575.5	0.88
1575.86	-0.2
1576.22	0.12
1576.58	0.16
1576.94	-0.12
1577.3	-0.4
1577.67	0.36
1578.03	0.44
1578.39	0.56
1578.75	0.56
1579.11	0.52
1579.47	0.52
1579.83	0.2
1580.19	0.24
1580.55	0.24
1580.91	0.24
1581.27	0.28
1581.63	0.2
1581.99	0.04
1582.35	0.04
1582.71	0.32
1583.07	0.48
1583.43	0.48
1583.79	0.48
1584.15	0.64
1584.51	1.08
1584.87	1.16
1585.23	1.24
1585.59	1.24
1585.95	1.32
1586.31	0.76
1586.67	0.48
1587.03	0.4
1587.39	0.48
1587.75	0.4
1588.11	0.44
1588.47	0.44
1588.83	0.44
1589.19	0.36
1589.55	0.56
1589.91	0.44
1590.27	0.64
1590.63	0.64
1590.99	0.76
1591.35	0.4
1591.71	0.4
1592.07	0.2
1592.42	0.2
1592.78	0.24
1593.14	0.28
1593.5	0.52
1593.86	0.52
1594.22	0.52
1594.58	0.52
1594.94	0.48
1595.3	0.32
1595.66	0.4
1596.02	0.68
1596.38	0.52
1596.74	0.68
1597.1	0.64
1597.46	0.6
1597.81	0.32
1598.17	0.68
1598.53	0.56
1598.89	0.44
1599.25	0.4
1599.61	0.44
1599.97	0.56
1600.33	0.52
1600.69	0.52
1601.05	0.52
1601.4	0.92
1601.76	0.48
1602.12	0.72
1602.48	0.72
1602.84	0.72
1603.2	0.32
1603.56	0.28
1603.92	0.4
1604.28	0.4
1604.63	0.72
1604.99	0.68
1605.35	0.68
1605.71	0.32
1606.07	0.48
1606.43	0.4
1606.79	0.4
1607.14	0.44
1607.5	0.48
1607.86	0.4
1608.22	0.28
1608.58	0.48
1608.94	0.68
1609.29	0.64
1609.65	0.6
1610.01	0.48
1610.37	0.28
1610.73	0.08
1611.09	0.2
1611.44	0.4
1611.8	0.52
1612.16	0.52
1612.52	0.48
1612.88	0.36
1613.24	0.12
1613.59	0
1613.95	0.04
1614.31	0.04
1614.67	0.16
1615.03	0.24
1615.38	0.84
1615.74	1.08
1616.1	1.32
1616.46	1.2
1616.82	1.24
1617.17	0.64
1617.53	0.48
1617.89	0.4
1618.25	0.4
1618.6	0.36
1618.96	0.48
1619.32	0.36
1619.68	0.2
1620.04	0.36
1620.39	0.12
1620.75	1.33221e-17
1621.11	0.08
1621.47	0.28
1621.82	0.12
1622.18	0.28
1622.54	0.56
1622.9	0.76
1623.25	-0.4
1623.61	-0.4
1623.97	-0.4
1624.33	-0.2
1624.68	-0.52
1625.04	0.8
1625.4	1.04
1625.75	0.52
1626.11	0.16
1626.47	0.28
1626.83	-0.04
1627.18	-0.28
1627.54	0.36
1627.9	0.24
1628.26	0.16
1628.61	0.24
1628.97	0.28
1629.33	0.16
1629.68	0.2
1630.04	0.32
1630.4	-0.12
1630.75	0.2
1631.11	0.2
1631.47	0.24
1631.83	0.36
1632.18	0.8
1632.54	0.6
1632.9	0.6
1633.25	0.52
1633.61	0.72
1633.97	0.6
1634.32	0.44
1634.68	0.48
1635.04	0.64
1635.39	0.36
1635.75	0.76
1636.11	0.92
1636.46	1.24
1636.82	1.08
1637.18	1
1637.53	0.6
1637.89	0.44
1638.25	0.24
1638.6	0.68
1638.96	0.8
1639.31	0.88
1639.67	0.88
1640.03	0.96
1640.38	0.68
1640.74	0.48
1641.1	0.4
1641.45	0.4
1641.81	0.24
1642.16	0.28
1642.52	0.44
1642.88	0.44
1643.23	-0.16
1643.59	0.08
1643.95	-0.04
1644.3	-0.12
1644.66	-0.12
1645.01	0.56
1645.37	0.44
1645.73	0.36
1646.08	0.44
1646.44	0.52
1646.79	-2.22261e-18
1647.15	-0.12
1647.51	-0.08
1647.86	-0.24
1648.22	-0.08
1648.57	-0.44
1648.93	-0.48
1649.28	-0.52
1649.64	-0.44
1650	-0.68
1650.35	0.28
1650.71	0.64
1651.06	0.8
1651.42	0.72
1651.77	0.72
1652.13	0.56
1652.48	0.16
1652.84	0
1653.2	0.16
1653.55	0.32
1653.91	0.6
1654.26	0.64
1654.62	0.68
1654.97	0.6
1655.33	0.48
1655.68	0.24
1656.04	0.2
1656.39	0.24
1656.75	0.16
1657.1	0.2
1657.46	0.16
1657.81	0.28
1658.17	0.2
1658.52	0.36
1658.88	0.28
1659.23	0.52
1659.59	0.4
1659.94	0.48
1660.3	0.6
1660.65	0.68
1661.01	0.44
1661.36	0.44
1661.72	0.36
1662.07	0.28
1662.43	0.24
1662.78	0.32
1663.14	0.32
1663.49	0.48
1663.85	0.32
1664.2	0.28
1664.56	0.44
1664.91	-1.36
1665.27	-1.52
1665.62	-1.4
1665.98	-1.28
1666.33	-1.44
1666.69	0.52
1667.04	0.52
1667.39	0.52
1667.75	0.4
1668.1	0.44
1668.46	0.36
1668.81	0.44
1669.17	0.48
1669.52	0.68
1669.88	0.76
1670.23	0.92
1670.58	0.84
1670.94	0.64
1671.29	0.44
1671.65	0.32
1672	0.36
1672.36	0.4
1672.71	0.76
1673.06	0.76
1673.42	0.84
1673.77	0.6
1674.13	1.76
1674.48	1.4
1674.83	1.56
1675.19	1.84
1675.54	1.96
1675.9	1
1676.25	1
1676.6	0.84
1676.96	0.4
1677.31	0.28
1677.67	0.04
1678.02	0.04
1678.37	0.28
1678.73	0.28
1679.08	0.24
1679.43	0.24
1679.79	0.24
1680.14	0
1680.5	-0.56
1680.85	-0.56
1681.2	-0.44
1681.56	-0.44
1681.91	-0.36
1682.26	0.52
1682.62	0.72
1682.97	0.6
1683.32	0.96
1683.68	0.88
1684.03	0.64
1684.38	0.44
1684.74	0.84
1685.09	0.48
1685.44	0.56
1685.8	0.48
1686.15	0.56
1686.5	0.56
1686.86	0.56
1687.21	0.48
1687.56	0.52
1687.92	0.72
1688.27	0.32
1688.62	0.32
1688.98	0.64
1689.33	0.64
1689.68	0.44
1690.03	0.6
1690.39	0.68
1690.74	0.36
1691.09	0.56
1691.45	0.48
1691.8	0.64
1692.15	1
1692.5	1.08
1692.86	0.84
1693.21	1.12
1693.56	0.8
1693.92	0.36
1694.27	-0.32
1694.62	-0.32
1694.97	-0.6
1695.33	-0.2
1695.68	0.16
1696.03	1.12
1696.38	1.24
1696.74	1.4
1697.09	0.96
1697.44	1.4
1697.79	1.12
1698.15	1.4
1698.5	1.32
1698.85	1.44
1699.2	-0.16
1699.56	-0.16
1699.91	-0.48
1700.26	-5.77338e-17
1700.61	0.2
1700.97	1
1701.32	0.92
1701.67	1.08
1702.02	0.56
1702.37	0.36
1702.73	0.36
1703.08	0.8
1703.43	0.56
1703.78	0.76
1704.13	0.68
1704.49	0.88
1704.84	0.52
1705.19	0.52
1705.54	0.52
1705.89	0.52
1706.25	0.48
1706.6	0.4
1706.95	0.4
1707.3	0.8
1707.65	1.04
1708.01	0.92
1708.36	0.92
1708.71	1.08
1709.06	0.52
1709.41	0.28
1709.76	0.52
1710.12	0.88
1710.47	0.88
1710.82	0.8
1711.17	0.8
1711.52	0.52
1711.87	0.56
1712.23	1.24
1712.58	1.52
1712.93	1.96
1713.28	1.96
1713.63	1.56
1713.98	0.72
1714.33	0.72
1714.69	0.4
1715.04	0.52
1715.39	0.84
1715.74	1.04
1716.09	0.88
1716.44	1.16
1716.79	1.16
1717.14	0.84
1717.5	1.08
1717.85	1.08
1718.2	0.8
1718.55	1.28
1718.9	1.28
1719.25	1.2
1719.6	1.16
1719.95	1.36
1720.3	0.76
1720.65	0.84
1721.01	0.84
1721.36	0.76
1721.71	0.52
1722.06	-0.08
1722.41	-0.28
1722.76	-0.64
1723.11	-0.52
1723.46	-0.44
1723.81	0.2
1724.16	0.56
1724.51	0.6
1724.86	0.48
1725.21	0.6
1725.56	0.64
1725.92	0.52
1726.27	0.48
1726.62	0.68
1726.97	0.4
1727.32	0.04
1727.67	0.44
1728.02	0.64
1728.37	0.44
1728.72	0.64
1729.07	1.12
1729.42	0.72
1729.77	0.52
1730.12	0.52
1730.47	0.6
1730.82	0.4
1731.17	0.44
1731.52	0.44
1731.87	0.76
1732.22	0.48
1732.57	0.48
1732.92	0.48
1733.27	0.96
1733.62	0.88
1733.97	0.92
1734.32	1.28
1734.67	1.44
1735.02	0.56
1735.37	0.32
1735.72	0.48
1736.07	0.4
1736.42	0.24
1736.77	0.64
1737.12	0.68
1737.47	0.48
1737.82	0.2
1738.17	0.04
1738.52	0.08
1738.87	0.24
1739.22	0.36
1739.57	0.36
1739.92	0.36
1740.27	0.32
1740.62	0.12
1740.97	0
1741.32	0
1741.67	0.08
1742.02	0.16
1742.37	0.48
1742.72	0.48
1743.06	0.72
1743.41	0.8
1743.76	0.88
1744.11	-0.56
1744.46	-0.2
1744.81	-0.44
1745.16	-0.28
1745.51	-0.32
1745.86	1.16
1746.21	0.8
1746.56	0.8
1746.91	0.72
1747.26	0.72
1747.6	0.92
1747.95	0.92
1748.3	0.92
1748.65	0.8
1749	0.68
1749.35	0.48
1749.7	0.48
1750.05	0.72
1750.4	0.92
1750.75	1
1751.09	0.64
1751.44	0.8
1751.79	-0.04
1752.14	-0.16
1752.49	-0.2
1752.84	0.28
1753.19	0.28
1753.54	1.08
1753.88	0.96
1754.23	0.92
1754.58	0.88
1754.93	0.8
1755.28	0.6
1755.63	0.52
1755.98	0.88
1756.32	0.72
1756.67	0.68
1757.02	0.68
1757.37	1.08
1757.72	0.72
1758.07	0.96
1758.42	0.92
1758.76	1.12
1759.11	0.56
1759.46	0.92
1759.81	0.92
1760.16	0.96
1760.5	1.52
1760.85	2.16
1761.2	1.8
1761.55	2.16
1761.9	2.84
1762.25	2.32
1762.59	1.88
1762.94	2.4
1763.29	1.92
1763.64	1.24
1763.99	1.2
1764.33	1.76
1764.68	1.4
1765.03	1
1765.38	2.92
1765.73	3.84
1766.07	4.32
1766.42	4.84
1766.77	6.44
1767.12	5.76
1767.46	5.08
1767.81	4.8
1768.16	5.4
1768.51	4.8
1768.85	4.64
1769.2	5.24
1769.55	5.16
1769.9	7.16
1770.25	6.76
1770.59	7.16
1770.94	8.12
1771.29	10.92
1771.64	10.48
1771.98	11.96
1772.33	13.36
1772.68	13
1773.02	11.12
1773.37	12.24
1773.72	13.04
1774.07	14.16
1774.41	15.48
1774.76	15.92
1775.11	15.04
1775.46	15.2
1775.8	13.84
1776.15	14.6
1776.5	14.88
1776.84	14.96
1777.19	18.24
1777.54	21.52
1777.89	23.44
1778.23	27.8
1778.58	29.8
1778.93	29.72
1779.27	30
1779.62	29.84
1779.97	28.68
1780.31	28.32
1780.66	28.16
1781.01	28.44
1781.35	30.52
1781.7	32.64
1782.05	36.6
1782.39	37.2
1782.74	37.08
1783.09	37.04
1783.43	37.76
1783.78	38.36
1784.13	40.28
1784.47	41.36
1784.82	42.52
1785.17	40.52
1785.51	39
1785.86	40.84
1786.21	44.4
1786.55	46.76
1786.9	51.4
1787.25	54.88
1787.59	57
1787.94	55.84
1788.29	53
1788.63	54.4
1788.98	53.6
1789.32	50.56
1789.67	49.6
1790.02	48.6
1790.36	45.8
1790.71	51.48
1791.06	57.76
1791.4	62.6
1791.75	72.08
1792.09	83.32
1792.44	88.16
1792.79	89.2
1793.13	94
1793.48	92.92
1793.82	90.84
1794.17	84.36
1794.52	81.04
1794.86	78.64
1795.21	75.32
1795.55	65.76
1795.9	58.4
1796.24	66.64
1796.59	82.48
1796.94	95.92
1797.28	104.28
1797.63	117.24
1797.97	113
1798.32	95.44
1798.66	91.2
1799.01	93.88
1799.36	90.44
1799.7	91.64
1800.05	97.6
1800.39	92.4
1800.74	97.84
1801.08	116.12
1801.43	129
1801.77	130.24
1802.12	135.84
1802.46	133.6
1802.81	119.76
1803.15	109.48
1803.5	105.4
1803.85	96.24
1804.19	86.76
1804.54	86.96
1804.88	84.16
1805.23	84.44
1805.57	103.36
1805.92	127.32
1806.26	131.92
1806.61	130.56
1806.95	138.64
1807.3	142.64
1807.64	140.92
1807.99	145.2
1808.33	148.2
1808.68	138.4
1809.02	136.88
1809.37	143.08
1809.71	151.16
1810.06	159
1810.4	160.76
1810.75	147.84
1811.09	143.36
1811.43	154.32
1811.78	176.48
1812.12	201.16
1812.47	217.2
1812.81	215.92
1813.16	198.04
1813.5	180.4
1813.85	171.96
1814.19	159.96
1814.54	146.76
1814.88	139.56
1815.23	124.6
1815.57	102.8
1815.91	87.32
1816.26	89.8
1816.6	112.44
1816.95	133.72
1817.29	152.44
1817.64	179.72
1817.98	204.08
1818.32	203.84
1818.67	206.44
1819.01	215.92
1819.36	210.16
1819.7	188.92
1820.05	178.48
1820.39	167.96
1820.73	156.72
1821.08	162.52
1821.42	158.36
1821.77	143.76
1822.11	132.96
1822.45	124.68
1822.8	113.16
1823.14	107.68
1823.49	112.32
1823.83	140.2
1824.17	171.52
1824.52	186
1824.86	197.2
1825.2	202.32
1825.55	181.96
1825.89	146.72
1826.24	129.88
1826.58	144.2
1826.92	150.92
1827.27	158.64
1827.61	174.72
1827.95	175.56
1828.3	156.56
1828.64	141.2
1828.98	118.2
1829.33	102.48
1829.67	123.24
1830.02	136.92
1830.36	148.24
1830.7	177.2
1831.05	193.72
1831.39	185.76
1831.73	176.76
1832.08	167.88
1832.42	152.76
1832.76	145.68
1833.1	130.4
1833.45	122.28
1833.79	117.36
1834.13	113.16
1834.48	114.04
1834.82	115.44
1835.16	109.72
1835.51	113
1835.85	109.16
1836.19	94.4
1836.54	84.04
1836.88	78.84
1837.22	64.32
1837.56	61.04
1837.91	68.28
1838.25	80.12
1838.59	98.64
1838.94	112.24
1839.28	108.12
1839.62	103.52
1839.96	102.12
1840.31	82.16
1840.65	66.4
1840.99	73.4
1841.34	94.08
1841.68	102.92
1842.02	119
1842.36	130.04
1842.71	125.4
1843.05	101.6
1843.39	94.08
1843.73	100.72
1844.08	114.76
1844.42	132.96
1844.76	145.6
1845.1	141.68
1845.45	125.16
1845.79	111.56
1846.13	102.92
1846.47	96.36
1846.81	86.84
1847.16	85.52
1847.5	90.2
1847.84	92.32
1848.18	97.48
1848.53	105.36
1848.87	106.92
1849.21	99.6
1849.55	88.56
1849.89	77.08
1850.24	71
1850.58	67.04
1850.92	59.2
1851.26	55.76
1851.6	56.8
1851.95	54
1852.29	51.48
1852.63	50.48
1852.97	46.92
1853.31	41.76
1853.66	37.8
1854	35.68
1854.34	39.76
1854.68	51.72
1855.02	54.4
1855.36	57.72
1855.71	57.92
1856.05	51.96
1856.39	40.48
1856.73	34.4
1857.07	30.2
1857.41	31.32
1857.76	32.12
1858.1	28.88
1858.44	30.28
1858.78	30.32
1859.12	25.6
1859.46	24.2
1859.8	22
1860.15	19.44
1860.49	28
1860.83	35.6
1861.17	34.36
1861.51	36.28
1861.85	37
1862.19	26.92
1862.53	23.12
1862.88	25.28
1863.22	25.84
1863.56	25.72
1863.9	24.92
1864.24	20.36
1864.58	19.2
1864.92	18.04
1865.26	15.76
1865.6	15.44
1865.94	13.12
1866.29	10.92
1866.63	11.68
1866.97	12.2
1867.31	14.76
1867.65	17.36
1867.99	18.56
1868.33	18.36
1868.67	20.6
1869.01	22.96
1869.35	30.56
1869.69	36.16
1870.03	40.64
1870.37	44.28
1870.72	41.48
1871.06	33.8
1871.4	29.4
1871.74	26.72
1872.08	26.52
1872.42	32.96
1872.76	36.64
1873.1	38.36
1873.44	36.12
1873.78	31.72
1874.12	27.56
1874.46	30.12
1874.8	34.12
1875.14	40.08
1875.48	42.24
1875.82	43.44
1876.16	41.6
1876.5	38.72
1876.84	34.88
1877.18	34.6
1877.52	30.08
1877.86	27.4
1878.2	27.28
1878.54	26.24
1878.88	27.32
1879.22	30.44
1879.56	31.6
1879.9	32.4
1880.24	37.72
1880.58	39.12
1880.92	40.68
1881.26	41.4
1881.6	41.4
1881.94	40.84
1882.28	43.2
1882.62	48
1882.96	49.48
1883.3	50
1883.64	50
1883.98	46.72
1884.32	42.48
1884.66	42.24
1885	43.76
1885.34	43.56
1885.68	47.6
1886.02	48.48
1886.36	49.44
1886.7	49.44
1887.04	51.04
1887.38	50.92
1887.72	53.24
1888.06	55.72
1888.39	58.04
1888.73	62
1889.07	68.4
1889.41	69.48
1889.75	69.64
1890.09	76.52
1890.43	73.4
1890.77	64
1891.11	61.8
1891.45	60.8
1891.79	52.68
1892.13	52.76
1892.47	58.56
1892.8	60.64
1893.14	62.84
1893.48	65.88
1893.82	68.72
1894.16	66.48
1894.5	67.68
1894.84	68.28
1895.18	66.56
1895.52	67.8
1895.86	71.8
1896.19	72.36
1896.53	72.44
1896.87	77.4
1897.21	76.44
1897.55	77.84
1897.89	80.92
1898.23	85.36
1898.57	80.56
1898.9	81.36
1899.24	80.44
1899.58	77.84
1899.92	76.36
1900.26	80.52
1900.6	78.88
1900.94	79.2
1901.27	82.96
1901.61	82.6
1901.95	82.76
1902.29	86.76
1902.63	87.6
1902.97	85.12
1903.3	86.28
1903.64	88.68
1903.98	87.44
1904.32	87.24
1904.66	87.84
1905	88.72
1905.33	86.6
1905.67	87.68
1906.01	89.48
1906.35	90.36
1906.69	88.76
1907.02	89.64
1907.36	89.68
1907.7	88.56
1908.04	88.16
1908.38	89.16
1908.71	88.76
1909.05	90.28
1909.39	90.68
1909.73	91
1910.07	90.44
1910.4	91.72
1910.74	92.68
1911.08	91.72
1911.42	91.28
1911.76	91.08
1912.09	89.12
1912.43	88.16
1912.77	90.28
1913.11	91.4
1913.44	92.08
1913.78	93.44
1914.12	92.76
1914.46	92.72
1914.79	92.76
1915.13	94
1915.47	92.96
1915.81	91.08
1916.14	90.12
1916.48	88.72
1916.82	86.36
1917.16	87
1917.49	89.36
1917.83	88.92
1918.17	89.32
1918.5	90.64
1918.84	90.32
1919.18	88.68
1919.52	90.32
1919.85	89.4
1920.19	88.24
1920.53	89.16
1920.87	88.96
1921.2	85.68
1921.54	86.92
1921.88	85.92
1922.21	82.92
1922.55	83.16
1922.89	84.76
1923.22	84.2
1923.56	83.48
1923.9	86.04
1924.23	85.44
1924.57	83.08
1924.91	83.2
1925.25	84.24
1925.58	83.08
1925.92	82.28
1926.26	82.28
1926.59	78.88
1926.93	77.36
1927.27	76.68
1927.6	77.24
1927.94	77.12
1928.28	79.04
1928.61	78.08
1928.95	77.48
1929.29	76.4
1929.62	76.48
1929.96	75.48
1930.29	75.52
1930.63	75.44
1930.97	73.28
1931.3	73.72
1931.64	72.72
1931.98	72
1932.31	69.52
1932.65	70.92
1932.99	70.16
1933.32	70.8
1933.66	72
1933.99	73.72
1934.33	73.08
1934.67	73.28
1935	71.88
1935.34	70.48
1935.67	69.64
1936.01	69.16
1936.35	67.76
1936.68	69.4
1937.02	70.24
1937.35	69.24
1937.69	69.32
1938.03	68.96
1938.36	65.2
1938.7	64.76
1939.03	64.92
1939.37	64
1939.7	64.32
1940.04	67.04
1940.38	65.56
1940.71	66.32
1941.05	66.2
1941.38	65.04
1941.72	64.12
1942.05	64.36
1942.39	63.24
1942.73	62.72
1943.06	63.44
1943.4	63.08
1943.73	64.36
1944.07	65.6
1944.4	66.16
1944.74	64.32
1945.07	64.36
1945.41	64
1945.74	63.08
1946.08	63.76
1946.42	64.72
1946.75	63.8
1947.09	62.64
1947.42	64.6
1947.76	64.04
1948.09	64.4
1948.43	64.96
1948.76	65.32
1949.1	62.96
1949.43	63
1949.77	63.36
1950.1	64.48
1950.44	64.56
1950.77	65.56
1951.11	65.28
1951.44	64.64
1951.78	64.8
1952.11	64.96
1952.45	63.52
1952.78	63.32
1953.12	64.36
1953.45	63.4
1953.79	63.32
1954.12	64.6
1954.46	66
1954.79	65.4
1955.12	65.4
1955.46	66.32
1955.79	64.72
1956.13	63.56
1956.46	64.08
1956.8	64
1957.13	62.68
1957.47	63.12
1957.8	63.84
1958.14	63.36
1958.47	63.28
1958.8	63.4
1959.14	63.76
1959.47	63.32
1959.81	62.92
1960.14	62.44
1960.48	61.44
1960.81	60.6
1961.14	61.08
1961.48	61.8
1961.81	61.72
1962.15	63.2
1962.48	64.48
1962.82	63.48
1963.15	62.72
1963.48	63.96
1963.82	63.28
1964.15	62.72
1964.49	63.24
1964.82	63.84
1965.15	63.04
1965.49	62.68
1965.82	61.72
1966.16	61.68
1966.49	61.36
1966.82	60.24
1967.16	59.28
1967.49	58.12
1967.83	57.32
1968.16	55.56
1968.49	57.4
1968.83	56.92
1969.16	58.4
1969.49	56.8
1969.83	55.28
1970.16	54.44
1970.49	54.72
1970.83	53.16
1971.16	52.52
1971.5	53
1971.83	51.04
1972.16	49.8
1972.5	49.12
1972.83	49.2
1973.16	49.6
1973.5	49.56
1973.83	49.64
1974.16	48.64
1974.5	47.24
1974.83	45.52
1975.16	44
1975.5	43.24
1975.83	43.52
1976.16	43.48
1976.49	44.4
1976.83	43.28
1977.16	43.04
1977.49	44.48
1977.83	44.52
1978.16	42.48
1978.49	43.12
1978.83	42.32
1979.16	39.44
1979.49	39.24
1979.83	39.6
1980.16	38.76
1980.49	38.64
1980.82	38.68
1981.16	38.24
1981.49	35.04
1981.82	33.72
1982.15	33.48
1982.49	32.72
1982.82	31.08
1983.15	32.68
1983.49	30.4
1983.82	27.48
1984.15	27.64
1984.48	26.08
1984.82	23.08
1985.15	24
1985.48	24.2
1985.81	22.44
1986.15	22.76
1986.48	23.68
1986.81	23.6
1987.14	22.48
1987.48	20.4
1987.81	19.64
1988.14	18.76
1988.47	18.28
1988.81	18.84
1989.14	19.4
1989.47	18.56
1989.8	18.64
1990.13	17.72
1990.47	17.32
1990.8	16.84
1991.13	16.2
1991.46	14.32
1991.79	12.28
1992.13	11.32
1992.46	10.4
1992.79	10.28
1993.12	10.8
1993.45	11.44
1993.79	10.48
1994.12	11.08
1994.45	10.4
1994.78	9.44
1995.11	9.04
1995.45	9.12
1995.78	8
1996.11	8.08
1996.44	8.56
1996.77	8.72
1997.1	8.84
1997.44	8.6
1997.77	9.52
1998.1	10.36
1998.43	10.48
1998.76	9.48
1999.09	10.56
1999.43	7.08
1999.76	5.16
2000.09	3.92
2000.42	4.84
2000.75	2.6
2001.08	3.88
2001.41	4.6
2001.75	5.4
2002.08	4.92
2002.41	5.92
2002.74	6.8
2003.07	6.96
2003.4	7.12
2003.73	7.88
2004.06	7.4
2004.4	7.56
2004.73	7.56
2005.06	8.52
2005.39	7.72
2005.72	7.56
2006.05	7.08
2006.38	6.72
2006.71	5.04
2007.04	5.76
2007.37	6.48
2007.71	6.12
2008.04	6.72
2008.37	7.88
2008.7	7.76
2009.03	7.68
2009.36	7.92
2009.69	7.12
2010.02	6.4
2010.35	5.84
2010.68	5.68
2011.01	5.6
2011.34	6.2
2011.67	6.64
2012.01	7
2012.34	6.4
2012.67	6.52
2013	6.72
2013.33	6.6
2013.66	6.2
2013.99	8.76
2014.32	8.56
2014.65	10.12
2014.98	10.88
2015.31	11.68
2015.64	10.24
2015.97	10.52
2016.3	8.48
2016.63	8.12
2016.96	7.48
2017.29	8.4
2017.62	8.84
2017.95	10.08
2018.28	10.32
2018.61	10.04
2018.94	10.16
2019.27	10.12
2019.6	9.96
2019.93	10.52
2020.26	11.36
2020.59	10.08
2020.92	9.12
2021.25	8.28
2021.58	7.36
2021.91	8
2022.24	8.36
2022.57	9.24
2022.9	9.36
2023.23	9.12
2023.56	8.76
2023.89	8.84
2024.22	8.92
2024.55	9.12
2024.88	9.2
2025.21	9.28
2025.54	8.68
2025.87	9.48
2026.2	9.16
2026.53	9.6
2026.86	9.36
2027.19	10.08
2027.52	10.84
2027.85	10.36
2028.18	9.92
2028.51	8.8
2028.84	8.52
2029.16	7.88
2029.49	8.4
2029.82	10.04
2030.15	10.32
2030.48	9.32
2030.81	8.96
2031.14	9.88
2031.47	8.84
2031.8	8.84
2032.13	9.64
2032.46	8.88
2032.79	7.36
2033.12	7.24
2033.44	6.32
2033.77	5.72
2034.1	6
2034.43	7.2
2034.76	6
2035.09	6.6
2035.42	6.8
2035.75	6.36
2036.08	5.08
2036.41	5.64
2036.73	4.64
2037.06	5.32
2037.39	5.8
2037.72	6.28
2038.05	5.84
2038.38	6.96
2038.71	6.36
2039.04	4.76
2039.36	5.04
2039.69	4.24
2040.02	3.08
2040.35	3.48
2040.68	4.24
2041.01	3.8
2041.34	4.08
2041.66	5.52
2041.99	4.68
2042.32	4.68
2042.65	4.24
2042.98	4.56
2043.31	3.88
2043.63	4.52
2043.96	4.6
2044.29	4.44
2044.62	4.52
2044.95	4.92
2045.28	4.52
2045.6	4.6
2045.93	4.76
2046.26	4.52
2046.59	4.36
2046.92	3.88
2047.24	3.04
2047.57	3
2047.9	3.56
2048.23	4.16
2048.56	4.92
2048.88	4.84
2049.21	4.68
2049.54	3.96
2049.87	2.84
2050.2	2.08
2050.52	2.36
2050.85	2.08
2051.18	2.84
2051.51	2.76
2051.83	2.32
2052.16	2.4
2052.49	2.68
2052.82	2.16
2053.15	2.24
2053.47	2.72
2053.8	2.52
2054.13	2.6
2054.46	2.76
2054.78	2.52
2055.11	2.24
2055.44	1.96
2055.77	1.92
2056.09	1.72
2056.42	1.56
2056.75	1.36
2057.08	1.8
2057.4	1.84
2057.73	1.84
2058.06	2.2
2058.38	3.4
2058.71	3.8
2059.04	3.84
2059.37	3.6
2059.69	3.52
2060.02	2.6
2060.35	2.92
2060.67	2.88
2061	2.52
2061.33	2.24
2061.66	2.04
2061.98	1.32
2062.31	1.4
2062.64	1.68
2062.96	2.36
2063.29	2.44
2063.62	2.04
2063.94	1.6
2064.27	1.32
2064.6	-0.04
2064.92	2.77556e-17
2065.25	0.16
2065.58	0.04
2065.91	0.36
2066.23	1.08
2066.56	1.08
2066.89	0.92
2067.21	0.96
2067.54	0.72
2067.87	0.68
2068.19	0.84
2068.52	1.16
2068.84	1.16
2069.17	1.84
2069.5	1.76
2069.82	1.4
2070.15	1.36
2070.48	1.24
2070.8	0.52
2071.13	0.64
2071.46	1
2071.78	0.72
2072.11	0.64
2072.43	0.8
2072.76	0.64
2073.09	0.52
2073.41	0.56
2073.74	0.68
2074.07	0.88
2074.39	1.04
2074.72	1.48
2075.04	1.44
2075.37	1.52
2075.7	1.36
2076.02	1.6
2076.35	1
2076.67	1.32
2077	1.4
2077.33	1.28
2077.65	0.84
2077.98	0.84
2078.3	0.52
2078.63	0.28
2078.95	0.16
2079.28	0.36
2079.61	0.36
2079.93	0.52
2080.26	0.8
2080.58	0.92
2080.91	0.76
2081.23	1.28
2081.56	1.28
2081.89	0.96
2082.21	0.96
2082.54	1.36
2082.86	1.16
2083.19	1.56
2083.51	2.08
2083.84	2.2
2084.16	1.76
2084.49	1.36
2084.81	0.8
2085.14	0.56
2085.46	0.32
2085.79	0.56
2086.12	0.6
2086.44	0.64
2086.77	0.36
2087.09	0.64
2087.42	0.88
2087.74	0.84
2088.07	1
2088.39	1.12
2088.72	0.84
2089.04	0.52
2089.37	0.68
2089.69	1.24
2090.02	1.08
2090.34	1.04
2090.67	1.32
2090.99	-0.24
2091.32	-0.8
2091.64	-0.68
2091.97	-0.48
2092.29	-0.88
2092.62	0.52
2092.94	0.48
2093.26	1.08
2093.59	1.08
2093.91	-5.76796e-17
2094.24	0.2
2094.56	0.24
2094.89	-0.48
2095.21	-0.48
2095.54	0.6
2095.86	0.4
2096.19	0.28
2096.51	0.48
2096.84	0.32
2097.16	0.44
2097.48	0.64
2097.81	0.8
2098.13	0.76
2098.46	0.64
2098.78	0.76
2099.11	0.64
2099.43	0.4
2099.75	0.52
2100.08	0.84
2100.4	0.84
2100.73	0.84
2101.05	1.12
2101.38	1.32
2101.7	1.32
2102.02	1.84
2102.35	1.92
2102.67	2.24
2103	1.88
2103.32	1.68
2103.64	0.92
2103.97	1.04
2104.29	1.04
2104.62	1.08
2104.94	1.08
2105.26	0.64
2105.59	0.36
2105.91	-0.08
2106.23	-0.04
2106.56	0.16
2106.88	0.64
2107.21	1
2107.53	0.84
2107.85	0.68
2108.18	0.48
2108.5	0.52
2108.82	0.2
2109.15	0.56
2109.47	0.52
2109.79	0.68
2110.12	0.8
2110.44	0.8
2110.76	0.68
2111.09	0.76
2111.41	0.64
2111.73	0.4
2112.06	0.56
2112.38	0.32
2112.7	-0.2
2113.03	-0.16
2113.35	-0.12
2113.67	0.24
2114	0.32
2114.32	0.84
2114.64	0.76
2114.97	1.12
2115.29	0.64
2115.61	0.64
2115.94	0.72
2116.26	0.76
2116.58	0.56
2116.91	-0.44
2117.23	-0.4
2117.55	-0.56
2117.87	-0.44
2118.2	-0.64
2118.52	0.48
2118.84	0.44
2119.17	0.44
2119.49	0.36
2119.81	0.36
2120.13	0.28
2120.46	0.2
2120.78	-0.8
2121.1	-0.6
2121.42	-0.32
2121.75	5.77338e-17
2122.07	0.52
2122.39	1.64
2122.72	1.52
2123.04	1.32
2123.36	0.88
2123.68	0.36
2124.01	0.48
2124.33	0.44
2124.65	0.68
2124.97	0.76
2125.29	1.16
2125.62	1.2
2125.94	1.08
2126.26	0.88
2126.58	0.84
2126.91	-0.48
2127.23	-0.32
2127.55	-0.32
2127.87	-0.12
2128.2	0.24
2128.52	1.32
2128.84	0.88
2129.16	1.04
2129.48	0.72
2129.81	0.4
2130.13	0.32
2130.45	0.56
2130.77	0.4
2131.09	0.92
2131.42	1.12
2131.74	1.28
2132.06	1.08
2132.38	1.32
2132.7	0.8
2133.02	0.6
2133.35	0.6
2133.67	0.56
2133.99	0.68
2134.31	0.08
2134.63	0.32
2134.96	0.2
2135.28	0.28
2135.6	-0.08
2135.92	0.92
2136.24	0.6
2136.56	0.52
2136.88	0.68
2137.21	0.68
2137.53	0.56
2137.85	0.72
2138.17	0.08
2138.49	-1.33221e-17
2138.81	-1.33221e-17
2139.13	-0.2
2139.46	-0.04
2139.78	0.72
2140.1	0.64
2140.42	1
2140.74	0.92
2141.06	0.68
2141.38	0.6
2141.7	0.52
2142.03	0.2
2142.35	0.2
2142.67	0.12
2142.99	0.08
2143.31	0.24
2143.63	0.2
2143.95	0.2
2144.27	0.76
2144.59	0.84
2144.91	0.68
2145.24	0.68
2145.56	0.84
2145.88	0.28
2146.2	0.36
2146.52	0.36
2146.84	0.48
2147.16	0.32
2147.48	0.36
2147.8	0.2
2148.12	0.24
2148.44	0.2
2148.76	0.2
2149.08	0.24
2149.41	0.2
2149.73	0.16
2150.05	0.08
2150.37	0.4
2150.69	0.48
2151.01	0.68
2151.33	0.68
2151.65	0.8
2151.97	0.72
2152.29	0.6
2152.61	-5.55112e-17
2152.93	0.28
2153.25	0.28
2153.57	0.32
2153.89	0.56
2154.21	0.56
2154.53	0.28
2154.85	0.4
2155.17	0.12
2155.49	-0.32
2155.81	0.44
2156.13	0.52
2156.45	0.32
2156.77	0.52
2157.09	0.76
2157.41	0.44
2157.73	0.36
2158.05	0.32
2158.37	0.12
2158.69	0.08
2159.01	0.16
2159.33	0.28
2159.65	0.28
2159.97	0.28
2160.29	0.32
2160.61	0.2
2160.93	0.08
2161.25	0.16
2161.57	0.16
2161.89	0.16
2162.21	0.44
2162.53	0.44
2162.85	0.08
2163.17	0.08
2163.49	-2.66443e-17
2163.81	-0.28
2164.13	-0.12
2164.45	-0.28
2164.77	-0.08
2165.08	0.16
2165.4	0.36
2165.72	0.2
2166.04	0.84
2166.36	0.64
2166.68	0.4
2167	0.32
2167.32	0.6
2167.64	0.76
2167.96	0.96
2168.28	1.16
2168.6	1.04
2168.92	0.8
2169.24	0.48
2169.55	0.28
2169.87	0.12
2170.19	0.12
2170.51	0.08
2170.83	0.56
2171.15	0.8
2171.47	0.8
2171.79	1
2172.11	1.32
2172.43	1
2172.74	0.92
2173.06	1.16
2173.38	0.96
2173.7	0.64
2174.02	0.44
2174.34	0.28
2174.66	0
2174.98	0.12
2175.29	0.24
2175.61	0.24
2175.93	0.24
2176.25	0.36
2176.57	0.24
2176.89	0.24
2177.21	0.6
2177.52	0.72
2177.84	0.68
2178.16	0.72
2178.48	0.6
2178.8	0.32
2179.12	0.2
2179.43	0.2
2179.75	-0.64
2180.07	-0.6
2180.39	-0.44
2180.71	-0.44
2181.03	-0.4
2181.34	0.4
2181.66	0.36
2181.98	0.32
2182.3	0.32
2182.62	0.2
2182.93	-0.08
2183.25	-0.08
2183.57	-0.12
2183.89	-0.12
2184.21	0.04
2184.52	0.68
2184.84	0.68
2185.16	0.52
2185.48	0.52
2185.8	0.36
2186.11	0.12
2186.43	0.12
2186.75	0.12
2187.07	-0.28
2187.39	-0.88
2187.7	-1
2188.02	-1.6
2188.34	-1.6
2188.66	-1.2
2188.97	-0.52
2189.29	-0.44
2189.61	0.4
2189.93	0.4
2190.24	0.64
2190.56	0.56
2190.88	0.8
2191.2	0.72
2191.51	0.92
2191.83	0.68
2192.15	0.68
2192.47	0.64
2192.78	0.88
2193.1	1.48
2193.42	1.48
2193.74	1.52
2194.05	1.24
2194.37	1.04
2194.69	0.24
2195	-0.16
2195.32	-0.2
2195.64	-0.2
2195.96	-0.4
2196.27	-0.28
2196.59	-0.44
2196.91	-0.44
2197.22	-0.4
2197.54	-0.32
2197.86	-0.44
2198.18	0.24
2198.49	0.36
2198.81	0.32
2199.13	0.32
2199.44	0.32
2199.76	0.24
2200.08	0.16
2200.39	0.28
2200.71	0.32
2201.03	0.32
2201.34	0.52
2201.66	0.48
2201.98	0.36
2202.29	0.4
2202.61	0.4
2202.93	0.2
2203.24	0.28
2203.56	0.48
2203.88	0.32
2204.19	0.4
2204.51	0.72
2204.83	0.84
2205.14	0.64
2205.46	0.8
2205.78	0.84
2206.09	0.48
2206.41	0.08
2206.72	-0.12
2207.04	-0.16
2207.36	-0.52
2207.67	-0.12
2207.99	0.08
2208.31	0.28
2208.62	0.24
2208.94	0.48
2209.25	0.16
2209.57	0.16
2209.89	0.36
2210.2	0.28
2210.52	0.32
2210.83	0.28
2211.15	0.4
2211.47	0.2
2211.78	0.36
2212.1	-0.08
2212.41	0.24
2212.73	0.12
2213.05	0.16
2213.36	0.08
2213.68	0.48
2213.99	0.12
2214.31	0.24
2214.62	0.24
2214.94	0.24
2215.26	0.24
2215.57	0.28
2215.89	0.32
2216.2	0.28
2216.52	0.2
2216.83	0.4
2217.15	0.44
2217.46	0.36
2217.78	0.36
2218.1	0.16
2218.41	0.16
2218.73	0.08
2219.04	0.16
2219.36	0.16
2219.67	0.36
2219.99	0.16
2220.3	0.16
2220.62	0.08
2220.93	0.08
2221.25	0.16
2221.56	0.16
2221.88	0.24
2222.19	0.16
2222.51	0.24
2222.82	-1.24
2223.14	-1.24
2223.45	-1.28
2223.77	-1.28
2224.08	-1.36
2224.4	0.04
2224.71	0.04
2225.03	0
2225.34	0
2225.66	-1.4
2225.97	-1.32
2226.29	-1.2
2226.6	-1.04
2226.92	-1.04
2227.23	0.48
2227.55	0.6
2227.86	0.48
2228.18	0.44
2228.49	0.44
2228.81	0.4
2229.12	0.56
2229.44	0.56
2229.75	0.48
2230.07	0.52
2230.38	0.84
2230.69	0.68
2231.01	0.68
2231.32	0.64
2231.64	0.72
2231.95	0.48
2232.27	0.28
2232.58	0.28
2232.9	0.28
2233.21	0.16
2233.52	0.08
2233.84	0.08
2234.15	0.2
2234.47	0.2
2234.78	0.28
2235.1	0.24
2235.41	0.24
2235.72	0.12
2236.04	0.12
2236.35	0.04
2236.67	-0.6
2236.98	-0.6
2237.29	-0.6
2237.61	-0.4
2237.92	-0.4
2238.24	0.28
2238.55	0.28
2238.86	0.28
2239.18	0.16
2239.49	-0.6
2239.8	-0.16
2240.12	-0.16
2240.43	-0.04
2240.75	-0.08
2241.06	0.68
2241.37	0.16
2241.69	0.16
2242	0.08
2242.31	0.04
2242.63	0.16
2242.94	0.36
2243.26	-0.12
2243.57	0.04
2243.88	0.16
2244.2	0.16
2244.51	0.44
2244.82	0.92
2245.14	0.72
2245.45	0.6
2245.76	0.48
2246.08	0
2246.39	0.04
2246.7	0.04
2247.02	0.24
2247.33	0.24
2247.64	0.36
2247.96	0.32
2248.27	0.36
2248.58	-0.52
2248.9	-0.48
2249.21	-0.6
2249.52	-0.6
2249.83	-0.64
2250.15	0.04
2250.46	0.04
2250.77	0.04
2251.09	0.04
2251.4	0.04
2251.71	0.04
2252.03	0
2252.34	0
2252.65	0
2252.96	0.08
2253.28	0.12
2253.59	0.24
2253.9	0.32
2254.21	0.32
2254.53	0.24
2254.84	0.44
2255.15	0.4
2255.47	0.32
2255.78	0.4
2256.09	0.4
2256.4	0.16
2256.72	0.36
2257.03	0.36
2257.34	0.56
2257.65	0.6
2257.97	0.6
2258.28	0.32
2258.59	0.4
2258.9	0.12
2259.22	0.08
2259.53	0.08
2259.84	0.24
2260.15	0.24
2260.46	0.24
2260.78	0.24
2261.09	0.24
2261.4	0.2
2261.71	0.32
2262.03	0.32
2262.34	0.36
2262.65	0.36
2262.96	0.44
2263.27	0.28
2263.59	0.28
2263.9	0.24
2264.21	0.24
2264.52	0.12
2264.83	0.16
2265.15	0.16
2265.46	0.16
2265.77	0.44
2266.08	0.36
2266.39	0.28
2266.7	0.36
2267.02	0.52
2267.33	-0.16
2267.64	-0.16
2267.95	0.04
2268.26	-0.04
2268.57	-0.16
2268.89	0.84
2269.2	0.84
2269.51	0.64
2269.82	0.64
2270.13	0.68
2270.44	0.2
2270.76	-0.2
2271.07	-0.2
2271.38	-0.76
2271.69	-0.8
2272	-0.36
2272.31	0.04
2272.62	-0.6
2272.93	0.2
2273.25	0.16
2273.56	-0.16
2273.87	-0.12
2274.18	0.6
2274.49	0.64
2274.8	0.72
2275.11	0.52
2275.42	0.52
2275.74	0.48
2276.05	0.24
2276.36	0.2
2276.67	0.2
2276.98	0.56
2277.29	0.52
2277.6	0.48
2277.91	0.44
2278.22	0
2278.53	-0.32
2278.85	-0.32
2279.16	-1.32
2279.47	-1.32
2279.78	-0.88
2280.09	-0.96
2280.4	-0.96
2280.71	0.4
2281.02	0.48
2281.33	0.64
2281.64	0.64
2281.95	0.64
2282.26	0.28
2282.57	0.24
2282.88	0.08
2283.19	0.08
2283.5	0.08
2283.82	0.08
2284.13	0.08
2284.44	0.16
2284.75	2.99782e-17
2285.06	2.99782e-17
2285.37	2.99782e-17
2285.68	-0.04
2285.99	-0.16
2286.3	0.04
2286.61	0.04
2286.92	0.04
2287.23	0.04
2287.54	0.12
2287.85	0.08
2288.16	0.12
2288.47	0.52
2288.78	0.6
2289.09	0.6
2289.4	0.6
2289.71	0.64
2290.02	0.24
2290.33	0.16
2290.64	0.08
2290.95	-0.12
2291.26	0.04
2291.57	0.04
2291.88	-0.2
2292.19	-0.2
2292.5	-1.33221e-17
2292.81	-0.24
2293.12	-0.24
2293.43	0
2293.74	0
2294.05	0
2294.36	0
2294.67	0
2294.98	0
2295.29	0
2295.6	0
2295.91	0
2296.21	0
2296.52	0
2296.83	0
2297.14	0
2297.45	0
2297.76	0
2298.07	0
2298.38	0
2298.69	0
2299	0
2299.31	0
2299.62	0
2299.93	0
2300.24	0
2300.55	0
2300.85	0
2301.16	0
2301.47	0
2301.78	0
2302.09	0
2302.4	0
2302.71	0
2303.02	0
2303.33	0
2303.64	0
2303.94	0
2304.25	0
2304.56	0
2304.87	0
2305.18	0
2305.49	0
2305.8	0
2306.11	0
2306.42	0
2306.72	0
2307.03	0
2307.34	0
2307.65	0
2307.96	0
2308.27	0
2308.58	0
2308.88	0
2309.19	0
2309.5	0
2309.81	0
2310.12	0
2310.43	0
2310.74	0
2311.04	0
2311.35	0
2311.66	0
2311.97	0
2312.28	0
2312.59	0
2312.89	0
2313.2	0
2313.51	0
2313.82	0
2314.13	0
2314.43	0
2314.74	0
2315.05	0
2315.36	0
2315.67	0
2315.97	0
2316.28	0
2316.59	0
2316.9	0
2317.21	0
2317.51	0
2317.82	0
2318.13	0
2318.44	0
2318.75	0
2319.05	0
2319.36	0
2319.67	0
2319.98	0
2320.28	0
2320.59	0
2320.9	0
2321.21	0
2321.51	0
2321.82	0
2322.13	0
2322.44	0
2322.74	0
2323.05	0
2323.36	0
2323.67	0
2323.97	0
2324.28	0
2324.59	0
2324.9	0
2325.2	0
2325.51	0
2325.82	0
2326.13	0
2326.43	0
2326.74	0
2327.05	0
2327.35	0
2327.66	0
2327.97	0
2328.27	0
2328.58	0
2328.89	0
2329.2	0
2329.5	0
2329.81	0
2330.12	0
2330.42	0
2330.73	0
2331.04	0
2331.34	0
2331.65	0
2331.96	0
2332.26	0
2332.57	0
2332.88	0
2333.18	0
2333.49	0
2333.8	0
2334.1	0
2334.41	0
2334.72	0
2335.02	0
2335.33	0
2335.64	0
2335.94	0
2336.25	0
2336.56	0
2336.86	0
2337.17	0
2337.48	0
2337.78	0
2338.09	0
2338.39	0
2338.7	0
2339.01	0
2339.31	0
2339.62	0
2339.93	0
2340.23	0
2340.54	0
2340.84	0
2341.15	0
2341.46	0
2341.76	0
2342.07	0
2342.37	0
2342.68	0
2342.99	0
2343.29	0
2343.6	0
2343.9	0
2344.21	0
2344.51	0
2344.82	0
2345.13	0
2345.43	0
2345.74	0
2346.04	0
2346.35	0
2346.65	0
2346.96	0
2347.27	0
2347.57	0
2347.88	0
2348.18	0
2348.49	0
2348.79	0
2349.1	0
2349.4	0
2349.71	0
2350.01	0
2350.32	0
2350.63	0
2350.93	0
2351.24	0
2351.54	0
2351.85	0
2352.15	0
2352.46	0
2352.76	0
2353.07	0
2353.37	0
2353.68	0
2353.98	0
2354.29	0
2354.59	0
2354.9	0
2355.2	0
2355.51	0
2355.81	0
2356.12	0
2356.42	0
2356.73	0
2357.03	0
2357.34	0
2357.64	0
2357.95	0
2358.25	0
2358.55	0
2358.86	0
2359.16	0
2359.47	0
2359.77	0
2360.08	0
2360.38	0
2360.69	0
2360.99	0
2361.3	0
2361.6	0
2361.9	0
2362.21	0
2362.51	0
2362.82	0
2363.12	0
2363.43	0
2363.73	0
2364.04	0
2364.34	0
2364.64	0
2364.95	0
2365.25	0
2365.56	0
2365.86	0
2366.16	0
2366.47	0
2366.77	0
2367.08	0
2367.38	0
2367.68	0
2367.99	0
2368.29	0
2368.6	0
2368.9	0
2369.2	0
2369.51	0
2369.81	0
2370.12	0
2370.42	0
2370.72	0
2371.03	0
2371.33	0
2371.63	0
2371.94	0
2372.24	0
2372.55	0
2372.85	0
2373.15	0
2373.46	0
2373.76	0
2374.06	0
2374.37	0
2374.67	0
2374.97	0
2375.28	0
2375.58	0
2375.88	0
2376.19	0
2376.49	0
2376.79	0
2377.1	0
2377.4	0
2377.7	0
2378.01	0
2378.31	0
2378.61	0
2378.92	0
2379.22	0
2379.52	0
2379.82	0
2380.13	0
2380.43	0
2380.73	0
2381.04	0
2381.34	0
2381.64	0
2381.95	0
2382.25	0
2382.55	0
2382.85	0
2383.16	0
2383.46	0
2383.76	0
2384.06	0
2384.37	0
2384.67	0
2384.97	0
2385.28	0
2385.58	0
2385.88	0
2386.18	0
2386.49	0
2386.79	0
2387.09	0
2387.39	0
2387.69	0
2388	0
2388.3	0
2388.6	0
2388.9	0
2389.21	0
2389.51	0
2389.81	0
2390.11	0
2390.42	0
2390.72	0
2391.02	0
2391.32	0
2391.62	0
2391.93	0
2392.23	0
2392.53	0
2392.83	0
2393.13	0
2393.44	0
2393.74	0
2394.04	0
2394.34	0
2394.64	0
2394.95	0
2395.25	0
2395.55	0
2395.85	0
2396.15	0
2396.45	0
2396.76	0
2397.06	0
2397.36	0
2397.66	0
2397.96	0
2398.26	0
2398.57	0
2398.87	0
2399.17	0
2399.47	0
2399.77	0
2400.07	0
2400.37	0
2400.68	0
2400.98	0
2401.28	0
2401.58	0
2401.88	0
2402.18	0
2402.48	0
2402.79	0
2403.09	0
2403.39	0
2403.69	0
2403.99	0
2404.29	0
2404.59	0
2404.89	0
2405.19	0
2405.5	0
2405.8	0
2406.1	0
2406.4	0
2406.7	0
2407	0
2407.3	0
2407.6	0
2407.9	0
2408.2	0
2408.5	0
2408.8	0
2409.11	0
2409.41	0
2409.71	0
2410.01	0
2410.31	0
2410.61	0
2410.91	0
2411.21	0
2411.51	0
2411.81	0
2412.11	0
2412.41	0
2412.71	0
2413.01	0
2413.31	0
2413.61	0
2413.91	0
2414.21	0
2414.51	0
2414.81	0
2415.12	0
2415.42	0
2415.72	0
2416.02	0
2416.32	0
2416.62	0
2416.92	0
2417.22	0
2417.52	0
2417.82	0
2418.12	0
2418.42	0
2418.72	0
2419.02	0
2419.32	0
2419.62	0
2419.92	0
2420.22	0
2420.52	0
2420.82	0
2421.12	0
2421.42	0
2421.71	0
2422.01	0
2422.31	0
2422.61	0
2422.91	0
2423.21	0
2423.51	0
2423.81	0
2424.11	0
2424.41	0
2424.71	0
2425.01	0
2425.31	0
2425.61	0
2425.91	0
2426.21	0
2426.51	0
2426.81	0
2427.11	0
2427.41	0
2427.7	0
2428	0
2428.3	0
2428.6	0
2428.9	0
2429.2	0
2429.5	0
2429.8	0
2430.1	0
2430.4	0
2430.7	0
2430.99	0
2431.29	0
2431.59	0
2431.89	0
2432.19	0
2432.49	0
2432.79	0
2433.09	0
2433.39	0
2433.68	0
2433.98	0
2434.28	0
2434.58	0
2434.88	0
2435.18	0
2435.48	0
2435.78	0
2436.07	0
2436.37	0
2436.67	0
2436.97	0
2437.27	0
2437.57	0
2437.86	0
2438.16	0
2438.46	0
2438.76	0
2439.06	0
2439.36	0
2439.66	0
2439.95	0
2440.25	0
2440.55	0
2440.85	0
2441.15	0
2441.44	0
2441.74	0
2442.04	0
2442.34	0
2442.64	0
2442.93	0
2443.23	0
2443.53	0
2443.83	0
2444.13	0
2444.42	0
2444.72	0
2445.02	0
2445.32	0
2445.62	0
2445.91	0
2446.21	0
2446.51	0
2446.81	0
2447.1	0
2447.4	0
2447.7	0
2448	0
2448.3	0
2448.59	0
2448.89	0
2449.19	0
2449.49	0
2449.78	0
2450.08	0
2450.38	0
2450.68	0
2450.97	0
2451.27	0
2451.57	0
2451.87	0
2452.16	0
2452.46	0
2452.76	0
2453.05	0
2453.35	0
2453.65	0
2453.95	0
2454.24	0
2454.54	0
2454.84	0
2455.13	0
2455.43	0
2455.73	0
2456.03	0
2456.32	0
2456.62	0
2456.92	0
2457.21	0
2457.51	0
2457.81	0
2458.1	0
2458.4	0
2458.7	0
2458.99	0
2459.29	0
2459.59	0
2459.88	0
2460.18	0
2460.48	0
2460.77	0
2461.07	0
2461.37	0
2461.66	0
2461.96	0
2462.26	0
2462.55	0
2462.85	0
2463.15	0
2463.44	0
2463.74	0
2464.04	0
2464.33	0
2464.63	0
2464.92	0
2465.22	0
2465.52	0
2465.81	0
2466.11	0
2466.41	0
2466.7	0
2467	0
2467.29	0
2467.59	0
2467.89	0
2468.18	0
2468.48	0
2468.77	0
2469.07	0
2469.37	0
2469.66	0
2469.96	0
2470.25	0
2470.55	0
2470.84	0
2471.14	0
2471.44	0
2471.73	0
2472.03	0
2472.32	0
2472.62	0
2472.91	0
2473.21	0
2473.51	0
2473.8	0
2474.1	0
2474.39	0
2474.69	0
2474.98	0
2475.28	0
2475.57	0
2475.87	0
2476.17	0
2476.46	0
2476.76	0
2477.05	0
2477.35	0
2477.64	0
2477.94	0
2478.23	0
2478.53	0
2478.82	0
2479.12	0
2479.41	0
2479.71	0
2480	0
2480.3	0
2480.59	0
2480.89	0
2481.18	0
2481.48	0
2481.77	0
2482.07	0
2482.36	0
2482.66	0
2482.95	0
2483.25	0
2483.54	0
2483.84	0
2484.13	0
2484.43	0
2484.72	0
2485.02	0
2485.31	0
2485.6	0
2485.9	0
2486.19	0
2486.49	0
2486.78	0
2487.08	0
2487.37	0
2487.67	0
2487.96	0
2488.26	0
2488.55	0
2488.84	0
2489.14	0
2489.43	0
2489.73	0
2490.02	0
2490.32	0
2490.61	0
2490.9	0
2491.2	0
2491.49	0
2491.79	0
2492.08	0
2492.37	0
2492.67	0
2492.96	0
2493.26	0
2493.55	0
2493.84	0
2494.14	0
2494.43	0
2494.73	0
2495.02	0
2495.31	0
2495.61	0
2495.9	0
2496.2	0
2496.49	0
2496.78	0
2497.08	0
2497.37	0
2497.66	0
2497.96	0
2498.25	0
2498.54	0
2498.84	0
2499.13	0
2499.43	0
2499.72	0
2500.01	0
2500.31	0
2500.6	0
2500.89	0
2501.19	0
2501.48	0
2501.77	0
2502.07	0
2502.36	0
2502.65	0
2502.95	0
2503.24	0
2503.53	0
2503.82	0
2504.12	0
2504.41	0
2504.7	0
2505	0
2505.29	0
2505.58	0
2505.88	0
2506.17	0
2506.46	0
2506.76	0
2507.05	0
2507.34	0
2507.63	0
2507.93	0
2508.22	0
2508.51	0
2508.8	0
2509.1	0
2509.39	0
2509.68	0
2509.98	0
2510.27	0
2510.56	0
2510.85	0
2511.15	0
2511.44	0
2511.73	0
2512.02	0
2512.32	0
2512.61	0
2512.9	0
2513.19	0
2513.49	0
2513.78	0
2514.07	0
2514.36	0
2514.65	0
2514.95	0
2515.24	0
2515.53	0
2515.82	0
2516.12	0
2516.41	0
2516.7	0
2516.99	0
2517.28	0
2517.58	0
2517.87	0
2518.16	0
2518.45	0
2518.74	0
2519.04	0
2519.33	0
2519.62	0
2519.91	0
2520.2	0
2520.5	0
2520.79	0
2521.08	0
2521.37	0
2521.66	0
2521.95	0
2522.25	0
2522.54	0
2522.83	0
2523.12	0
2523.41	0
2523.7	0
2523.99	0
2524.29	0
2524.58	0
2524.87	0
2525.16	0
2525.45	0
2525.74	0
2526.03	0
2526.33	0
2526.62	0
2526.91	0
2527.2	0
2527.49	0
2527.78	0
2528.07	0
2528.36	0
2528.66	0
2528.95	0
2529.24	0
2529.53	0
2529.82	0
2530.11	0
2530.4	0
2530.69	0
2530.98	0
2531.27	0
2531.57	0
2531.86	0
2532.15	0
2532.44	0
2532.73	0
2533.02	0
2533.31	0
2533.6	0
2533.89	0
2534.18	0
2534.47	0
2534.76	0
2535.05	0
2535.35	0
2535.64	0
2535.93	0
2536.22	0
2536.51	0
2536.8	0
2537.09	0
2537.38	0
2537.67	0
2537.96	0
2538.25	0
2538.54	0
2538.83	0
2539.12	0
2539.41	0
2539.7	0
2539.99	0
2540.28	0
2540.57	0
2540.86	0
2541.15	0
2541.44	0
2541.73	0
2542.02	0
2542.31	0
2542.6	0
2542.89	0
2543.18	0
2543.47	0
2543.76	0
2544.05	0
2544.34	0
2544.63	0
2544.92	0
2545.21	0
2545.5	0
2545.79	0
2546.08	0
2546.37	0
2546.66	0
2546.95	0
2547.24	0
2547.53	0
2547.82	0
2548.11	0
2548.4	0
2548.69	0
2548.98	0
2549.27	0
2549.55	0
2549.84	0
2550.13	0
2550.42	0
2550.71	0
2551	0
2551.29	0
2551.58	0
2551.87	0
2552.16	0
2552.45	0
2552.74	0
2553.03	0
2553.31	0
2553.6	0
2553.89	0
2554.18	0
2554.47	0
2554.76	0
2555.05	0
2555.34	0
2555.63	0
2555.92	0
2556.2	0
2556.49	0
2556.78	0
2557.07	0
2557.36	0
2557.65	0
2557.94	0
2558.23	0
2558.51	0
2558.8	0
2559.09	0
2559.38	0
2559.67	0
2559.96	0
2560.25	0
2560.53	0
2560.82	0
2561.11	0
2561.4	0
2561.69	0
2561.98	0
2562.27	0
2562.55	0
2562.84	0
2563.13	0
2563.42	0
2563.71	0
2564	0
2564.28	0
2564.57	0
2564.86	0
2565.15	0
2565.44	0
2565.72	0
2566.01	0
2566.3	0
2566.59	0
2566.88	0
2567.16	0
2567.45	0
2567.74	0
2568.03	0
2568.32	0
2568.6	0
2568.89	0
2569.18	0
2569.47	0
2569.75	0

