Source: Spectrum Viewer

Chart: Pulse Spectrum

Series: 
Wavelength (nm)	S (a.u.)
1179.9	0
1180.29	0
1180.68	0
1181.06	0
1181.45	0
1181.83	0
1182.22	0
1182.6	0
1182.99	0
1183.38	0
1183.76	0
1184.15	0
1184.53	0
1184.92	0
1185.3	0
1185.69	0
1186.07	0
1186.46	0
1186.85	0
1187.23	0
1187.62	0
1188	0
1188.39	0
1188.77	0
1189.16	0
1189.54	0
1189.93	0
1190.31	0
1190.7	0
1191.08	0
1191.47	0
1191.85	0
1192.24	0
1192.62	0
1193.01	0
1193.39	0
1193.78	0
1194.16	0
1194.55	0
1194.93	0
1195.32	0
1195.7	0
1196.09	0
1196.47	0
1196.86	0
1197.24	0
1197.63	0
1198.01	0
1198.4	0
1198.78	0
1199.16	0
1199.55	0
1199.93	0
1200.32	0
1200.7	0
1201.09	0
1201.47	0
1201.86	0
1202.24	0
1202.63	0
1203.01	0
1203.39	0
1203.78	0
1204.16	0
1204.55	0
1204.93	0
1205.32	0
1205.7	0
1206.08	0
1206.47	0
1206.85	0
1207.24	0
1207.62	0
1208	0
1208.39	0
1208.77	0
1209.16	0
1209.54	0
1209.92	0
1210.31	0
1210.69	0
1211.08	0
1211.46	0
1211.84	0
1212.23	0
1212.61	0
1213	0
1213.38	0
1213.76	0
1214.15	0
1214.53	0
1214.91	0
1215.3	0
1215.68	0
1216.06	0
1216.45	0
1216.83	0
1217.22	0
1217.6	0
1217.98	0
1218.37	0
1218.75	0
1219.13	0
1219.52	0
1219.9	0
1220.28	0
1220.67	0
1221.05	0
1221.43	0
1221.82	0
1222.2	0
1222.58	0
1222.97	0
1223.35	0
1223.73	0
1224.11	0
1224.5	0
1224.88	0
1225.26	0
1225.65	0
1226.03	0
1226.41	0
1226.8	0
1227.18	0
1227.56	0
1227.94	0
1228.33	0
1228.71	0
1229.09	0
1229.47	0
1229.86	0
1230.24	0
1230.62	0
1231.01	0
1231.39	0
1231.77	0
1232.15	0
1232.54	0
1232.92	0
1233.3	0
1233.68	0
1234.07	0
1234.45	0
1234.83	0
1235.21	0
1235.6	0
1235.98	0
1236.36	0
1236.74	0
1237.12	0
1237.51	0
1237.89	0
1238.27	0
1238.65	0
1239.04	0
1239.42	0
1239.8	0
1240.18	0
1240.56	0
1240.95	0
1241.33	0
1241.71	0
1242.09	0
1242.47	0
1242.86	0
1243.24	0
1243.62	0
1244	0
1244.38	0
1244.77	0
1245.15	0
1245.53	0
1245.91	0
1246.29	0
1246.67	0
1247.06	0
1247.44	0
1247.82	0
1248.2	0
1248.58	0
1248.96	0
1249.34	0
1249.73	0
1250.11	0
1250.49	0
1250.87	0
1251.25	0
1251.63	0
1252.01	0
1252.4	0
1252.78	0
1253.16	0
1253.54	0
1253.92	0
1254.3	0
1254.68	0
1255.06	0
1255.45	0
1255.83	0
1256.21	0
1256.59	0
1256.97	0
1257.35	0
1257.73	0
1258.11	0
1258.49	0
1258.87	0
1259.26	0
1259.64	0
1260.02	0
1260.4	0
1260.78	0
1261.16	0
1261.54	0
1261.92	0
1262.3	0
1262.68	0
1263.06	0
1263.44	0
1263.82	0
1264.21	0
1264.59	0
1264.97	0
1265.35	0
1265.73	0
1266.11	0
1266.49	0
1266.87	0
1267.25	0
1267.63	0
1268.01	0
1268.39	0
1268.77	0
1269.15	0
1269.53	0
1269.91	0
1270.29	0
1270.67	0
1271.05	0
1271.43	0
1271.81	0
1272.19	0
1272.57	0
1272.95	0
1273.33	0
1273.71	0
1274.09	0
1274.47	0
1274.85	0
1275.23	0
1275.61	0
1275.99	0
1276.37	0
1276.75	0
1277.13	0
1277.51	0
1277.89	0
1278.27	0
1278.65	0
1279.03	0
1279.41	0
1279.79	0
1280.17	0
1280.55	0
1280.93	0
1281.31	0
1281.69	0
1282.07	0
1282.45	0
1282.82	0
1283.2	0
1283.58	0
1283.96	0
1284.34	0
1284.72	0
1285.1	0
1285.48	0
1285.86	0
1286.24	0
1286.62	0
1287	0
1287.38	0
1287.75	0
1288.13	0
1288.51	0
1288.89	0
1289.27	0
1289.65	0
1290.03	0
1290.41	0
1290.79	0
1291.17	0
1291.54	0
1291.92	0
1292.3	0
1292.68	0
1293.06	0
1293.44	0
1293.82	0
1294.2	0
1294.57	0
1294.95	0
1295.33	0
1295.71	0
1296.09	0
1296.47	0
1296.85	0
1297.22	0
1297.6	0
1297.98	0
1298.36	0
1298.74	0
1299.12	0
1299.5	0
1299.87	0
1300.25	0
1300.63	0
1301.01	0
1301.39	0
1301.77	0
1302.14	0
1302.52	0
1302.9	0
1303.28	0
1303.66	0
1304.03	0
1304.41	0
1304.79	0
1305.17	0
1305.55	0
1305.92	0
1306.3	0
1306.68	0
1307.06	0
1307.44	0
1307.81	0
1308.19	0
1308.57	0
1308.95	0
1309.32	0
1309.7	0
1310.08	0
1310.46	0
1310.84	0
1311.21	0
1311.59	0
1311.97	0
1312.35	0
1312.72	0
1313.1	0
1313.48	0
1313.86	0
1314.23	0
1314.61	0
1314.99	0
1315.37	0
1315.74	0
1316.12	0
1316.5	0
1316.87	0
1317.25	0
1317.63	0
1318.01	0
1318.38	0
1318.76	0
1319.14	0
1319.52	0
1319.89	0
1320.27	0
1320.65	0
1321.02	0
1321.4	0
1321.78	0
1322.15	0
1322.53	0
1322.91	0
1323.29	0
1323.66	0
1324.04	0
1324.42	0
1324.79	0
1325.17	0
1325.55	0
1325.92	0
1326.3	0
1326.68	0
1327.05	0
1327.43	0
1327.81	0
1328.18	0
1328.56	0
1328.94	0
1329.31	0
1329.69	0
1330.06	0
1330.44	0
1330.82	0
1331.19	0
1331.57	0
1331.95	0
1332.32	0
1332.7	0
1333.08	0
1333.45	0
1333.83	0
1334.2	0
1334.58	0
1334.96	0
1335.33	0
1335.71	0
1336.08	0
1336.46	0
1336.84	0
1337.21	0
1337.59	0
1337.96	0
1338.34	0
1338.72	0
1339.09	0
1339.47	0
1339.84	0
1340.22	0
1340.6	0
1340.97	0
1341.35	0
1341.72	0
1342.1	0
1342.47	0
1342.85	0
1343.23	0
1343.6	0
1343.98	0
1344.35	0
1344.73	0
1345.1	0
1345.48	0
1345.85	0
1346.23	0
1346.61	0
1346.98	0
1347.36	0
1347.73	0
1348.11	0
1348.48	0
1348.86	0
1349.23	0
1349.61	0
1349.98	0
1350.36	0
1350.73	0
1351.11	0
1351.48	0
1351.86	0
1352.23	0
1352.61	0
1352.98	0
1353.36	0
1353.73	0
1354.11	0
1354.48	0
1354.86	0
1355.23	0
1355.61	0
1355.98	0
1356.36	0
1356.73	0
1357.11	0
1357.48	0
1357.86	0
1358.23	0
1358.61	0
1358.98	0
1359.35	0
1359.73	0
1360.1	0
1360.48	0
1360.85	0
1361.23	0
1361.6	0
1361.98	0
1362.35	0
1362.72	0
1363.1	0
1363.47	0
1363.85	0
1364.22	0
1364.6	0
1364.97	0
1365.34	0
1365.72	0
1366.09	0
1366.47	0
1366.84	0
1367.22	0
1367.59	0
1367.96	0
1368.34	0
1368.71	0
1369.09	0
1369.46	-1
1369.83	-1
1370.21	-0.96
1370.58	-0.96
1370.96	-0.88
1371.33	0.12
1371.7	0.28
1372.08	0.48
1372.45	0.52
1372.82	0.44
1373.2	0.52
1373.57	0.36
1373.95	0.12
1374.32	0.08
1374.69	0.24
1375.07	0.32
1375.44	0.32
1375.81	0.36
1376.19	0.36
1376.56	0.2
1376.93	0.04
1377.31	0.12
1377.68	0.08
1378.05	0.24
1378.43	0.24
1378.8	0.24
1379.17	0.2
1379.55	0.32
1379.92	0.4
1380.29	0.4
1380.67	0.4
1381.04	0.4
1381.41	0.28
1381.79	0.04
1382.16	0.04
1382.53	0.16
1382.91	-0.88
1383.28	-0.88
1383.65	-0.88
1384.03	-0.76
1384.4	-0.88
1384.77	0.12
1385.14	0.12
1385.52	0.12
1385.89	0
1386.26	0.12
1386.64	0.12
1387.01	0.2
1387.38	0.2
1387.75	0.2
1388.13	0.08
1388.5	0.08
1388.87	0
1389.25	0.04
1389.62	-0.16
1389.99	-0.36
1390.36	-0.24
1390.74	-0.24
1391.11	-0.24
1391.48	0.08
1391.85	0.32
1392.23	0.2
1392.6	0.2
1392.97	0.28
1393.34	0.16
1393.72	0.28
1394.09	0.28
1394.46	0.28
1394.83	0.16
1395.21	0.16
1395.58	0
1395.95	0
1396.32	0
1396.69	0
1397.07	0
1397.44	0.04
1397.81	0.08
1398.18	0.24
1398.55	0.24
1398.93	0.44
1399.3	0.4
1399.67	0.36
1400.04	0.2
1400.41	0.2
1400.79	0
1401.16	0.12
1401.53	0.36
1401.9	0.36
1402.27	0.36
1402.65	0.4
1403.02	0.28
1403.39	0.04
1403.76	-0.28
1404.13	-0.28
1404.51	-0.2
1404.88	-0.2
1405.25	-0.2
1405.62	0.2
1405.99	0.2
1406.36	0.08
1406.74	0.28
1407.11	0.28
1407.48	0.28
1407.85	-0.88
1408.22	-0.84
1408.59	-0.64
1408.96	-0.44
1409.34	-0.52
1409.71	0.64
1410.08	0.68
1410.45	0.28
1410.82	0.08
1411.19	0.08
1411.56	0.08
1411.93	0.08
1412.31	0.24
1412.68	0.24
1413.05	0.28
1413.42	0.32
1413.79	0.36
1414.16	0.04
1414.53	0.4
1414.9	0.28
1415.27	0.24
1415.65	0.12
1416.02	0.28
1416.39	-0.08
1416.76	0
1417.13	0
1417.5	0
1417.87	0
1418.24	0.16
1418.61	0.16
1418.98	0.24
1419.35	0.24
1419.73	0.24
1420.1	0.08
1420.47	0.16
1420.84	0.08
1421.21	0.28
1421.58	0.28
1421.95	0.44
1422.32	0.4
1422.69	0.4
1423.06	0.2
1423.43	0.2
1423.8	0.16
1424.17	0.24
1424.54	0.24
1424.91	0.24
1425.28	0.24
1425.65	0.36
1426.02	0.24
1426.39	0.24
1426.76	-0.36
1427.14	-0.36
1427.51	-0.56
1427.88	-0.56
1428.25	-0.56
1428.62	0.04
1428.99	0.04
1429.36	0
1429.73	0.12
1430.1	0.12
1430.47	0.12
1430.84	0.12
1431.21	0.2
1431.58	0.08
1431.95	0.4
1432.32	0.2
1432.69	0.2
1433.06	0.28
1433.43	0.32
1433.8	0.36
1434.17	0.56
1434.54	0.96
1434.91	1.08
1435.28	1.04
1435.64	0.72
1436.01	0.24
1436.38	-0.16
1436.75	-0.44
1437.12	-0.44
1437.49	-0.48
1437.86	0
1438.23	0
1438.6	0
1438.97	0
1439.34	0
1439.71	0.08
1440.08	0.08
1440.45	0.36
1440.82	-0.24
1441.19	-0.24
1441.56	-0.32
1441.93	-0.24
1442.3	-0.52
1442.67	-1.52
1443.03	-1.28
1443.4	-1.28
1443.77	-1.36
1444.14	-1.36
1444.51	0.32
1444.88	0.08
1445.25	0.08
1445.62	0.08
1445.99	0.32
1446.36	0.24
1446.73	0.28
1447.09	0.36
1447.46	0.36
1447.83	0.32
1448.2	0.32
1448.57	0.08
1448.94	0.16
1449.31	0.16
1449.68	-0.04
1450.05	1.05473e-17
1450.41	0.2
1450.78	-0.36
1451.15	-0.36
1451.52	-0.2
1451.89	-0.2
1452.26	-0.2
1452.63	0.24
1453	0.36
1453.36	0.2
1453.73	0.24
1454.1	0.24
1454.47	0.24
1454.84	0.12
1455.21	0.4
1455.57	-0.04
1455.94	-0.04
1456.31	-0.08
1456.68	-0.08
1457.05	-0.16
1457.42	0.2
1457.78	0.2
1458.15	0.2
1458.52	0.2
1458.89	0.12
1459.26	0.16
1459.63	0.28
1459.99	0.28
1460.36	0.4
1460.73	0.28
1461.1	0.28
1461.47	0.16
1461.83	0.16
1462.2	0.44
1462.57	0.56
1462.94	0.64
1463.31	0.72
1463.67	0.72
1464.04	0.12
1464.41	0
1464.78	-0.56
1465.15	-0.56
1465.51	-0.56
1465.88	-0.36
1466.25	-0.36
1466.62	0.08
1466.98	0
1467.35	0.04
1467.72	0.04
1468.09	0.04
1468.46	0.04
1468.82	0.04
1469.19	0
1469.56	0
1469.93	0.04
1470.29	0.04
1470.66	0.04
1471.03	0.04
1471.4	0.24
1471.76	0.2
1472.13	0.32
1472.5	0.32
1472.86	0.32
1473.23	0.24
1473.6	0.24
1473.97	0.12
1474.33	0.12
1474.7	0.12
1475.07	0
1475.44	0.04
1475.8	-0.16
1476.17	-0.16
1476.54	-0.16
1476.9	-0.12
1477.27	-0.16
1477.64	0.04
1478	0.04
1478.37	0.04
1478.74	0
1479.11	0
1479.47	0
1479.84	0
1480.21	0
1480.57	0.16
1480.94	0.16
1481.31	0.2
1481.67	0.2
1482.04	0.2
1482.41	0.04
1482.77	0.24
1483.14	0.36
1483.51	0.52
1483.87	0.52
1484.24	0.52
1484.61	0.56
1484.97	0.4
1485.34	0.24
1485.71	-0.76
1486.07	-0.76
1486.44	-1
1486.81	-0.72
1487.17	-0.72
1487.54	0.48
1487.9	0.68
1488.27	0.68
1488.64	0.76
1489	0.76
1489.37	0.56
1489.74	0.52
1490.1	0.72
1490.47	0.48
1490.83	0.48
1491.2	0.48
1491.57	0.32
1491.93	0.2
1492.3	0.08
1492.66	0.08
1493.03	0.08
1493.4	0.08
1493.76	0
1494.13	0
1494.49	0
1494.86	0
1495.23	0.08
1495.59	0.08
1495.96	-1.24
1496.32	-1.24
1496.69	-1.08
1497.06	-1.08
1497.42	-1.8
1497.79	-0.48
1498.15	-0.44
1498.52	-0.6
1498.88	-0.68
1499.25	0.04
1499.62	-0.36
1499.98	-0.4
1500.35	-0.28
1500.71	-0.28
1501.08	-0.2
1501.44	0.2
1501.81	0.2
1502.17	0.08
1502.54	0.36
1502.9	0.28
1503.27	0.28
1503.64	0.36
1504	0.48
1504.37	0.2
1504.73	0.2
1505.1	0.28
1505.46	0.24
1505.83	0.12
1506.19	0.28
1506.56	0.28
1506.92	0.2
1507.29	0.16
1507.65	0.32
1508.02	0.16
1508.38	0.28
1508.75	0.28
1509.11	0.28
1509.48	0.44
1509.84	0.44
1510.21	0.32
1510.57	0.32
1510.94	0.44
1511.3	0.12
1511.67	0.24
1512.03	0.32
1512.4	0.32
1512.76	0.2
1513.13	-0.8
1513.49	-1.12
1513.85	-1.2
1514.22	-1.04
1514.58	-1.04
1514.95	-0.04
1515.31	0.16
1515.68	0.16
1516.04	0
1516.41	0
1516.77	0.12
1517.14	0.24
1517.5	0.24
1517.86	0.24
1518.23	0.24
1518.59	0.36
1518.96	0.24
1519.32	0.28
1519.69	0.32
1520.05	0.32
1520.41	0.12
1520.78	0.12
1521.14	0.08
1521.51	0.04
1521.87	0.04
1522.24	0
1522.6	0
1522.96	0.6
1523.33	0.6
1523.69	0.68
1524.06	0.68
1524.42	0.76
1524.78	0.16
1525.15	0.16
1525.51	0.08
1525.88	0.08
1526.24	0
1526.6	0
1526.97	0
1527.33	0
1527.69	0
1528.06	0
1528.42	0
1528.79	0
1529.15	-0.8
1529.51	-0.8
1529.88	-0.8
1530.24	-0.8
1530.6	-0.8
1530.97	0
1531.33	0.08
1531.69	0.4
1532.06	0.4
1532.42	0.6
1532.78	0.6
1533.15	0.52
1533.51	0.24
1533.87	0.24
1534.24	0.04
1534.6	0.16
1534.96	0.16
1535.33	0.12
1535.69	0.32
1536.05	0.32
1536.42	0.36
1536.78	0.36
1537.14	0.36
1537.51	0.16
1537.87	0.16
1538.23	0
1538.6	0.2
1538.96	0.2
1539.32	0.2
1539.68	0.2
1540.05	0.2
1540.41	0
1540.77	0
1541.14	0
1541.5	0
1541.86	0
1542.23	0
1542.59	0.08
1542.95	0.08
1543.31	0.16
1543.68	0.16
1544.04	0.16
1544.4	0.16
1544.76	0.16
1545.13	0.08
1545.49	0.12
1545.85	0.12
1546.21	0.12
1546.58	0.52
1546.94	0.6
1547.3	0.56
1547.66	0.56
1548.03	0.6
1548.39	0.2
1548.75	0.12
1549.11	0.12
1549.48	0.12
1549.84	0
1550.2	0.16
1550.56	0.24
1550.93	0.24
1551.29	0.24
1551.65	0.44
1552.01	0.32
1552.37	0.24
1552.74	0.32
1553.1	0.4
1553.46	0.2
1553.82	0.16
1554.18	0.16
1554.55	0.08
1554.91	0
1555.27	0
1555.63	0.04
1555.99	0.04
1556.36	0.12
1556.72	-1.48
1557.08	-1.08
1557.44	-1.12
1557.8	-0.92
1558.17	-1
1558.53	0.6
1558.89	0.24
1559.25	0.24
1559.61	0.48
1559.97	0.72
1560.34	0.88
1560.7	0.84
1561.06	0.84
1561.42	0.4
1561.78	0.16
1562.14	-0.4
1562.5	-0.4
1562.87	-0.4
1563.23	-0.4
1563.59	-0.8
1563.95	-0.4
1564.31	-0.4
1564.67	-0.4
1565.03	-0.16
1565.4	0.4
1565.76	0.6
1566.12	0.64
1566.48	0.88
1566.84	0.64
1567.2	0.48
1567.56	0.08
1567.92	0.12
1568.29	-0.12
1568.65	6.66107e-18
1569.01	0.12
1569.37	-0.08
1569.73	-0.16
1570.09	-0.16
1570.45	-0.24
1570.81	-0.36
1571.17	0.04
1571.53	0.08
1571.89	0.24
1572.26	0.4
1572.62	0.4
1572.98	0.4
1573.34	0.36
1573.7	0.48
1574.06	0.48
1574.42	0.56
1574.78	0.56
1575.14	0.64
1575.5	0.36
1575.86	-0.24
1576.22	-0.28
1576.58	-0.28
1576.94	-0.36
1577.3	-0.36
1577.67	0.04
1578.03	0
1578.39	0.08
1578.75	0.12
1579.11	0.12
1579.47	0.12
1579.83	0.12
1580.19	0.28
1580.55	0.24
1580.91	0.28
1581.27	0.28
1581.63	0.52
1581.99	0.48
1582.35	0.48
1582.71	0.84
1583.07	0.92
1583.43	0.76
1583.79	0.6
1584.15	0.6
1584.51	0.28
1584.87	0.2
1585.23	0.16
1585.59	0.36
1585.95	0.6
1586.31	0.52
1586.67	0.64
1587.03	0.76
1587.39	0.52
1587.75	0.28
1588.11	0.28
1588.47	0.16
1588.83	0
1589.19	0
1589.55	0
1589.91	0
1590.27	0
1590.63	0
1590.99	0.2
1591.35	0.2
1591.71	0.2
1592.07	0.28
1592.42	0.28
1592.78	0.08
1593.14	0.16
1593.5	0.16
1593.86	0.08
1594.22	0.08
1594.58	0.24
1594.94	0.16
1595.3	0.32
1595.66	0.4
1596.02	0.56
1596.38	0.4
1596.74	0.4
1597.1	0.32
1597.46	0.32
1597.81	0.28
1598.17	0.28
1598.53	0.28
1598.89	0.28
1599.25	0.24
1599.61	0.12
1599.97	0.16
1600.33	0.16
1600.69	0.4
1601.05	0.44
1601.4	0.44
1601.76	0.16
1602.12	0.28
1602.48	0.08
1602.84	0.08
1603.2	0.16
1603.56	0.84
1603.92	0.72
1604.28	0.64
1604.63	0.56
1604.99	0.84
1605.35	0.4
1605.71	0.4
1606.07	0.36
1606.43	0.4
1606.79	0.04
1607.14	0.04
1607.5	0.04
1607.86	0.04
1608.22	0
1608.58	0
1608.94	0.12
1609.29	0.24
1609.65	0.04
1610.01	0.52
1610.37	0.6
1610.73	0.6
1611.09	0.52
1611.44	1.28
1611.8	1.16
1612.16	1.08
1612.52	0.96
1612.88	1.04
1613.24	0.48
1613.59	0.12
1613.95	0.16
1614.31	0.16
1614.67	0.52
1615.03	0.52
1615.38	0.52
1615.74	0.6
1616.1	0.6
1616.46	0.12
1616.82	0.44
1617.17	0.52
1617.53	0.48
1617.89	0.48
1618.25	0.48
1618.6	0.24
1618.96	0.2
1619.32	0.12
1619.68	0.2
1620.04	0.2
1620.39	0.04
1620.75	0.24
1621.11	0.32
1621.47	0.76
1621.82	0.8
1622.18	1.04
1622.54	1.24
1622.9	1.28
1623.25	-0.24
1623.61	-0.28
1623.97	0.04
1624.33	-0.4
1624.68	-0.72
1625.04	0.44
1625.4	0.44
1625.75	-0.64
1626.11	-0.56
1626.47	-0.28
1626.83	-0.44
1627.18	-0.44
1627.54	0.16
1627.9	0.32
1628.26	0.32
1628.61	0.84
1628.97	1.08
1629.33	1.12
1629.68	0.96
1630.04	0.88
1630.4	0.04
1630.75	-0.16
1631.11	-0.2
1631.47	-0.4
1631.83	-0.28
1632.18	0.04
1632.54	0.12
1632.9	0.12
1633.25	0.6
1633.61	0.68
1633.97	0.68
1634.32	0.64
1634.68	0.64
1635.04	0.32
1635.39	0.2
1635.75	0.2
1636.11	0.12
1636.46	0.12
1636.82	0.08
1637.18	0
1637.53	0.08
1637.89	0.08
1638.25	0.08
1638.6	0.24
1638.96	0.64
1639.31	0.56
1639.67	0.56
1640.03	0.76
1640.38	0.6
1640.74	0.24
1641.1	0.24
1641.45	0.28
1641.81	0.4
1642.16	0.92
1642.52	1.04
1642.88	1.24
1643.23	0.64
1643.59	0.64
1643.95	0.28
1644.3	0.12
1644.66	-0.08
1645.01	0.92
1645.37	0.6
1645.73	0.8
1646.08	0.88
1646.44	0.88
1646.79	-0.16
1647.15	-0.16
1647.51	-0.52
1647.86	-0.56
1648.22	-0.56
1648.57	-0.76
1648.93	-0.76
1649.28	-0.64
1649.64	-0.68
1650	-0.68
1650.35	0.12
1650.71	0.12
1651.06	0.08
1651.42	0.08
1651.77	-0.12
1652.13	0.04
1652.48	0.04
1652.84	0.08
1653.2	0.08
1653.55	0.28
1653.91	0.2
1654.26	0.32
1654.62	0.2
1654.97	0.24
1655.33	0.24
1655.68	0.2
1656.04	0.12
1656.39	0.12
1656.75	0.32
1657.1	0.32
1657.46	0.28
1657.81	0.44
1658.17	0.44
1658.52	0.28
1658.88	0.28
1659.23	0.28
1659.59	0.08
1659.94	0.08
1660.3	0.08
1660.65	0.08
1661.01	0.36
1661.36	0.4
1661.72	0.52
1662.07	0.48
1662.43	0.48
1662.78	0.2
1663.14	0.36
1663.49	0.4
1663.85	0.44
1664.2	0.44
1664.56	0.44
1664.91	-1.32
1665.27	-1.36
1665.62	-1.32
1665.98	-1.28
1666.33	-1.28
1666.69	0.56
1667.04	0.6
1667.39	0.48
1667.75	0.88
1668.1	1.52
1668.46	1.52
1668.81	1.36
1669.17	1.36
1669.52	1.16
1669.88	0.52
1670.23	0.24
1670.58	0.24
1670.94	0.44
1671.29	0.44
1671.65	0.44
1672	1.04
1672.36	1.04
1672.71	1
1673.06	1.12
1673.42	1.16
1673.77	0.6
1674.13	0.72
1674.48	1.76
1674.83	1.4
1675.19	1.44
1675.54	1.76
1675.9	1.8
1676.25	0.8
1676.6	0.84
1676.96	0.76
1677.31	0.4
1677.67	0.28
1678.02	0.12
1678.37	0.32
1678.73	0.4
1679.08	0.72
1679.43	0.84
1679.79	1.24
1680.14	1
1680.5	0.4
1680.85	0.08
1681.2	-0.08
1681.56	-0.52
1681.91	-0.36
1682.26	0.2
1682.62	0.44
1682.97	0.44
1683.32	0.44
1683.68	0.4
1684.03	0.68
1684.38	0.6
1684.74	0.68
1685.09	1
1685.44	0.76
1685.8	0.68
1686.15	0.56
1686.5	0.6
1686.86	0.52
1687.21	0.88
1687.56	1.12
1687.92	1.56
1688.27	1.56
1688.62	2
1688.98	1.76
1689.33	1.48
1689.68	1.08
1690.03	0.96
1690.39	0.68
1690.74	1
1691.09	1.4
1691.45	1.6
1691.8	2.08
1692.15	2.24
1692.5	2.36
1692.86	1.96
1693.21	2.68
1693.56	2.48
1693.92	2.12
1694.27	1.32
1694.62	1.2
1694.97	0.32
1695.33	0.44
1695.68	0.6
1696.03	1.12
1696.38	1.56
1696.74	1.52
1697.09	1.04
1697.44	1.52
1697.79	1.44
1698.15	1.2
1698.5	1.36
1698.85	2.04
1699.2	0.4
1699.56	0.32
1699.91	0.16
1700.26	0.4
1700.61	-0.08
1700.97	1
1701.32	1
1701.67	1.24
1702.02	0.84
1702.37	1.48
1702.73	1.52
1703.08	1.72
1703.43	2
1703.78	2.32
1704.13	1.88
1704.49	1.72
1704.84	1.92
1705.19	1.76
1705.54	1.4
1705.89	1.36
1706.25	1.6
1706.6	1.28
1706.95	0.8
1707.3	0.92
1707.65	0.8
1708.01	0.68
1708.36	0.88
1708.71	1.2
1709.06	1.36
1709.41	1.68
1709.76	1.88
1710.12	1.6
1710.47	2.12
1710.82	1.92
1711.17	1.84
1711.52	1.48
1711.87	1.68
1712.23	0.84
1712.58	0.72
1712.93	0.4
1713.28	0.36
1713.63	0.56
1713.98	0.8
1714.33	1.12
1714.69	1.04
1715.04	1.04
1715.39	1
1715.74	1.04
1716.09	1.68
1716.44	1.96
1716.79	2.16
1717.14	1.92
1717.5	1.72
1717.85	0.76
1718.2	0.92
1718.55	0.92
1718.9	0.8
1719.25	1.08
1719.6	1.36
1719.95	0.92
1720.3	1
1720.65	1.08
1721.01	1.04
1721.36	0.96
1721.71	1.16
1722.06	0.32
1722.41	0.28
1722.76	0.12
1723.11	-0.04
1723.46	-0.08
1723.81	1.04
1724.16	1.64
1724.51	1.92
1724.86	2.08
1725.21	2.48
1725.56	2.68
1725.92	2.56
1726.27	3.12
1726.62	3.64
1726.97	4.2
1727.32	3.68
1727.67	3.48
1728.02	3.48
1728.37	4.2
1728.72	4.24
1729.07	4.24
1729.42	4.4
1729.77	4.12
1730.12	2.96
1730.47	2.8
1730.82	3.04
1731.17	3.68
1731.52	4.52
1731.87	5.56
1732.22	4.96
1732.57	5.12
1732.92	4.44
1733.27	3.4
1733.62	3.36
1733.97	3.8
1734.32	4.12
1734.67	4.52
1735.02	4.36
1735.37	4.64
1735.72	5.48
1736.07	4.88
1736.42	6
1736.77	6.8
1737.12	7.88
1737.47	8
1737.82	8.52
1738.17	8.76
1738.52	8.8
1738.87	8.6
1739.22	8.88
1739.57	10.68
1739.92	11.32
1740.27	12.24
1740.62	11.08
1740.97	11.52
1741.32	11.32
1741.67	11.12
1742.02	10.32
1742.37	12.32
1742.72	12.56
1743.06	11.52
1743.41	11.84
1743.76	13.08
1744.11	12.24
1744.46	12.64
1744.81	13.08
1745.16	13.12
1745.51	12.72
1745.86	13.48
1746.21	12.76
1746.56	14.12
1746.91	13.4
1747.26	13.64
1747.6	13.32
1747.95	13.56
1748.3	12.52
1748.65	12.08
1749	11.28
1749.35	10.08
1749.7	9.88
1750.05	10.2
1750.4	11.56
1750.75	13.24
1751.09	13.68
1751.44	14.48
1751.79	13.72
1752.14	12.8
1752.49	12.48
1752.84	12.88
1753.19	11.96
1753.54	13.76
1753.88	13.04
1754.23	13.28
1754.58	13.6
1754.93	13.44
1755.28	11.48
1755.63	14.08
1755.98	12.36
1756.32	11.64
1756.67	10.92
1757.02	10.04
1757.37	9.48
1757.72	10.68
1758.07	10.08
1758.42	11.36
1758.76	12.24
1759.11	9.6
1759.46	8.44
1759.81	7.8
1760.16	7.6
1760.5	7.44
1760.85	7.44
1761.2	9.48
1761.55	9.88
1761.9	8.12
1762.25	8.96
1762.59	8.88
1762.94	7.32
1763.29	7.56
1763.64	7.36
1763.99	7.6
1764.33	8.04
1764.68	6.28
1765.03	7.36
1765.38	7.12
1765.73	5.56
1766.07	5.88
1766.42	7.36
1766.77	5.44
1767.12	6.36
1767.46	5.84
1767.81	5.88
1768.16	5.12
1768.51	5.6
1768.85	5
1769.2	5.04
1769.55	4.76
1769.9	4.56
1770.25	3.84
1770.59	4.32
1770.94	4.8
1771.29	3.6
1771.64	3
1771.98	3.08
1772.33	1.96
1772.68	0.92
1773.02	0.72
1773.37	0.88
1773.72	0.76
1774.07	1.08
1774.41	1.08
1774.76	1.4
1775.11	1.36
1775.46	1.28
1775.8	0.92
1776.15	1.08
1776.5	0.76
1776.84	0.56
1777.19	0.36
1777.54	0.52
1777.89	0.44
1778.23	1.12
1778.58	1.36
1778.93	1.8
1779.27	1.88
1779.62	1.84
1779.97	1.56
1780.31	1.8
1780.66	1.44
1781.01	1.36
1781.35	1.56
1781.7	1.28
1782.05	1.32
1782.39	1.72
1782.74	1.8
1783.09	2.32
1783.43	2.28
1783.78	1.96
1784.13	2.12
1784.47	1.64
1784.82	1.08
1785.17	2.6
1785.51	3.88
1785.86	4.64
1786.21	6.28
1786.55	7.68
1786.9	7.2
1787.25	6.4
1787.59	5.08
1787.94	4.76
1788.29	4.04
1788.63	3.52
1788.98	3.8
1789.32	5.24
1789.67	6.52
1790.02	9.2
1790.36	12.48
1790.71	18.04
1791.06	18.76
1791.4	20.12
1791.75	21.32
1792.09	24.16
1792.44	25.08
1792.79	24.48
1793.13	25.8
1793.48	27.76
1793.82	22.8
1794.17	17.24
1794.52	19.08
1794.86	17.52
1795.21	12.04
1795.55	11.36
1795.9	16.72
1796.24	30.72
1796.59	35.4
1796.94	45.92
1797.28	54.36
1797.63	50.32
1797.97	40.64
1798.32	38.8
1798.66	41.64
1799.01	41.8
1799.36	42.92
1799.7	51.2
1800.05	57.36
1800.39	47.2
1800.74	59.48
1801.08	76.44
1801.43	75.36
1801.77	73.16
1802.12	79.24
1802.46	75.6
1802.81	67.08
1803.15	61.12
1803.5	62.84
1803.85	59.56
1804.19	53.16
1804.54	58.84
1804.88	61.92
1805.23	61.92
1805.57	76.76
1805.92	87.84
1806.26	88.36
1806.61	90.64
1806.95	104.48
1807.3	120.68
1807.64	125.2
1807.99	127.36
1808.33	129.28
1808.68	118.52
1809.02	121.36
1809.37	136
1809.71	141.2
1810.06	150.44
1810.4	154.72
1810.75	132.36
1811.09	133.56
1811.43	155.08
1811.78	174.64
1812.12	200.64
1812.47	214.84
1812.81	201.92
1813.16	194.92
1813.5	180.56
1813.85	162.48
1814.19	161.68
1814.54	155.88
1814.88	136.52
1815.23	126.92
1815.57	110.48
1815.91	88.88
1816.26	97.72
1816.6	120.04
1816.95	131.48
1817.29	158.48
1817.64	190.6
1817.98	209.76
1818.32	226.2
1818.67	238.2
1819.01	241.72
1819.36	245.96
1819.7	224.44
1820.05	199.8
1820.39	209.68
1820.73	204.48
1821.08	188.56
1821.42	197.44
1821.77	192.52
1822.11	157.24
1822.45	152.72
1822.8	156.52
1823.14	136.72
1823.49	147.88
1823.83	196.4
1824.17	222.16
1824.52	241.92
1824.86	274.56
1825.2	271.56
1825.55	240.68
1825.89	214.08
1826.24	194.96
1826.58	210.32
1826.92	233.2
1827.27	239.24
1827.61	260.88
1827.95	274.84
1828.3	240.32
1828.64	212.32
1828.98	198.92
1829.33	178.88
1829.67	201.08
1830.02	234.92
1830.36	250.8
1830.7	290.68
1831.05	323.76
1831.39	298.8
1831.73	285.92
1832.08	288.12
1832.42	258.84
1832.76	238.88
1833.1	237.6
1833.45	216.16
1833.79	202.6
1834.13	204.96
1834.48	198.4
1834.82	202.92
1835.16	220.52
1835.51	215.16
1835.85	211.64
1836.19	214.44
1836.54	190.68
1836.88	167.88
1837.22	156.08
1837.56	139.4
1837.91	138.04
1838.25	168.52
1838.59	191.08
1838.94	209.72
1839.28	228.56
1839.62	221.4
1839.96	203.12
1840.31	186.6
1840.65	169.2
1840.99	161.88
1841.34	203.24
1841.68	229.88
1842.02	245.52
1842.36	276.28
1842.71	280.6
1843.05	231.32
1843.39	219.8
1843.73	240.48
1844.08	248.88
1844.42	279.04
1844.76	319.76
1845.1	313.24
1845.45	285.4
1845.79	273.24
1846.13	256.36
1846.47	236.96
1846.81	232.96
1847.16	234.44
1847.5	240.4
1847.84	256.8
1848.18	271.4
1848.53	279
1848.87	285.6
1849.21	278.6
1849.55	253.52
1849.89	240.36
1850.24	230.44
1850.58	218.04
1850.92	210.44
1851.26	207.8
1851.6	197.68
1851.95	196.04
1852.29	195.8
1852.63	185.32
1852.97	180.52
1853.31	172.6
1853.66	157.64
1854	158.88
1854.34	161.64
1854.68	167.44
1855.02	179.72
1855.36	190.64
1855.71	180.44
1856.05	181.16
1856.39	167.88
1856.73	150.52
1857.07	145.56
1857.41	144.84
1857.76	137.72
1858.1	137.32
1858.44	136.28
1858.78	131.96
1859.12	128
1859.46	119.2
1859.8	110.12
1860.15	104.44
1860.49	103.68
1860.83	117.16
1861.17	136.2
1861.51	138.2
1861.85	139.76
1862.19	133.32
1862.53	113.92
1862.88	103.04
1863.22	107.24
1863.56	102.28
1863.9	103.32
1864.24	113.84
1864.58	103.68
1864.92	97.48
1865.26	100.08
1865.6	93.52
1865.94	80.12
1866.29	76.64
1866.63	68.04
1866.97	62.2
1867.31	58.36
1867.65	52.88
1867.99	56.16
1868.33	54.68
1868.67	50.88
1869.01	49.44
1869.35	56.96
1869.69	66.08
1870.03	76.16
1870.37	85.4
1870.72	95
1871.06	90.64
1871.4	73.96
1871.74	62.88
1872.08	52.48
1872.42	51.8
1872.76	58.8
1873.1	63.76
1873.44	64
1873.78	63.72
1874.12	50.68
1874.46	39.96
1874.8	44.2
1875.14	53.8
1875.48	57
1875.82	62.8
1876.16	63.2
1876.5	58.96
1876.84	53.04
1877.18	50.04
1877.52	46.64
1877.86	41.64
1878.2	33.04
1878.54	23.84
1878.88	21.48
1879.22	17.6
1879.56	15.96
1879.9	13.84
1880.24	16.28
1880.58	16.12
1880.92	21.28
1881.26	23.68
1881.6	22.68
1881.94	19.32
1882.28	17.36
1882.62	14.16
1882.96	19.92
1883.3	27.48
1883.64	29.16
1883.98	31.28
1884.32	30.72
1884.66	20.48
1885	13.08
1885.34	13.56
1885.68	10.84
1886.02	9
1886.36	9.76
1886.7	10.96
1887.04	8.36
1887.38	8.28
1887.72	7
1888.06	5.28
1888.39	4.16
1888.73	5.56
1889.07	8.24
1889.41	14.08
1889.75	16.48
1890.09	21.12
1890.43	26.68
1890.77	26.16
1891.11	20.72
1891.45	19
1891.79	13.64
1892.13	8.16
1892.47	4.68
1892.8	5.24
1893.14	6.56
1893.48	6.68
1893.82	7.16
1894.16	9.88
1894.5	9.96
1894.84	8.52
1895.18	9.48
1895.52	7.88
1895.86	5.56
1896.19	6.96
1896.53	8.64
1896.87	8.12
1897.21	9
1897.55	10.72
1897.89	10.16
1898.23	14.04
1898.57	16.64
1898.9	15.16
1899.24	14.52
1899.58	15.68
1899.92	11.64
1900.26	9.28
1900.6	11.92
1900.94	13.08
1901.27	12.84
1901.61	15.24
1901.95	17.2
1902.29	18.44
1902.63	21.36
1902.97	23.68
1903.3	22.64
1903.64	23.68
1903.98	24.24
1904.32	24.8
1904.66	23.24
1905	25.52
1905.33	26.8
1905.67	28.64
1906.01	28.48
1906.35	31.52
1906.69	33.52
1907.02	34.12
1907.36	33.24
1907.7	35.72
1908.04	35.08
1908.38	35.96
1908.71	38.64
1909.05	42
1909.39	41.12
1909.73	42.8
1910.07	41.56
1910.4	40.4
1910.74	40.52
1911.08	43.12
1911.42	43.12
1911.76	44.84
1912.09	47.16
1912.43	48.72
1912.77	48.32
1913.11	51.52
1913.44	53.12
1913.78	51.72
1914.12	51.68
1914.46	53.48
1914.79	52.6
1915.13	53.8
1915.47	55.76
1915.81	55.92
1916.14	56.16
1916.48	59.36
1916.82	60.88
1917.16	61
1917.49	64.36
1917.83	65.68
1918.17	64.76
1918.5	65.6
1918.84	69.68
1919.18	67.8
1919.52	67.92
1919.85	71.88
1920.19	72.8
1920.53	73.68
1920.87	76.96
1921.2	78.4
1921.54	75.84
1921.88	78.48
1922.21	79
1922.55	79.36
1922.89	80.84
1923.22	84.08
1923.56	80.92
1923.9	80.84
1924.23	83.04
1924.57	82.12
1924.91	81.96
1925.25	85.04
1925.58	84.84
1925.92	84.84
1926.26	90
1926.59	91.96
1926.93	91.4
1927.27	93.16
1927.6	94.68
1927.94	93.08
1928.28	93.28
1928.61	94.92
1928.95	94.96
1929.29	91.92
1929.62	93.04
1929.96	93.24
1930.29	93.68
1930.63	95.68
1930.97	98.96
1931.3	96.72
1931.64	97.56
1931.98	99.04
1932.31	97.24
1932.65	99.08
1932.99	101.32
1933.32	98.96
1933.66	99.36
1933.99	102.76
1934.33	100.48
1934.67	100.52
1935	103.36
1935.34	101.88
1935.67	102.52
1936.01	104.8
1936.35	105.68
1936.68	106.4
1937.02	109.48
1937.35	108.76
1937.69	109.28
1938.03	111.2
1938.36	110.24
1938.7	108.6
1939.03	108.64
1939.37	109.64
1939.7	108.68
1940.04	110.76
1940.38	111.12
1940.71	110.56
1941.05	110.36
1941.38	111
1941.72	108.72
1942.05	109.56
1942.39	112.08
1942.73	111.08
1943.06	111
1943.4	113.4
1943.73	112.16
1944.07	110.16
1944.4	111.44
1944.74	111.16
1945.07	110.32
1945.41	111.72
1945.74	112.92
1946.08	110.52
1946.42	111.64
1946.75	111.64
1947.09	110.68
1947.42	111.24
1947.76	110.72
1948.09	108.68
1948.43	108.4
1948.76	109.52
1949.1	108.04
1949.43	108.88
1949.77	109.48
1950.1	110.96
1950.44	109.8
1950.77	110.6
1951.11	112.16
1951.44	112.64
1951.78	109.8
1952.11	109.36
1952.45	109.68
1952.78	107
1953.12	106.88
1953.45	109.4
1953.79	109.36
1954.12	105.68
1954.46	106.4
1954.79	106.24
1955.12	104.16
1955.46	103.28
1955.79	105.72
1956.13	104.84
1956.46	102.4
1956.8	100.4
1957.13	100.4
1957.47	98.4
1957.8	97.76
1958.14	98.8
1958.47	100.04
1958.8	98.6
1959.14	99.76
1959.47	99.84
1959.81	97.32
1960.14	96.44
1960.48	97.52
1960.81	96.28
1961.14	95.88
1961.48	96.8
1961.81	97.24
1962.15	95.4
1962.48	93.84
1962.82	94.2
1963.15	94.72
1963.48	93.12
1963.82	93.04
1964.15	93.72
1964.49	91.2
1964.82	90.08
1965.15	91.08
1965.49	91.08
1965.82	89.16
1966.16	88.52
1966.49	86.88
1966.82	84.24
1967.16	82.12
1967.49	81.92
1967.83	82.8
1968.16	81.68
1968.49	81.2
1968.83	81.4
1969.16	81.24
1969.49	79.52
1969.83	79.8
1970.16	79.24
1970.49	77.8
1970.83	74.08
1971.16	73.88
1971.5	72.24
1971.83	69.84
1972.16	69.72
1972.5	70.24
1972.83	69.36
1973.16	68.48
1973.5	68.6
1973.83	66.04
1974.16	65.96
1974.5	64.92
1974.83	62.88
1975.16	64.48
1975.5	64.96
1975.83	63.52
1976.16	62.72
1976.49	62.48
1976.83	59.64
1977.16	58.48
1977.49	56.56
1977.83	55.16
1978.16	53.96
1978.49	52.92
1978.83	50.4
1979.16	49.64
1979.49	47.72
1979.83	48.2
1980.16	48.32
1980.49	47.16
1980.82	46.8
1981.16	46.36
1981.49	44.32
1981.82	42.64
1982.15	43.6
1982.49	41.6
1982.82	39.32
1983.15	37.48
1983.49	36.4
1983.82	34.88
1984.15	34.92
1984.48	36.12
1984.82	35.32
1985.15	33.6
1985.48	31.44
1985.81	31.88
1986.15	29.56
1986.48	30.16
1986.81	29.72
1987.14	29.12
1987.48	26.24
1987.81	25.48
1988.14	22.96
1988.47	20.08
1988.81	19.48
1989.14	18.56
1989.47	16.04
1989.8	16
1990.13	18
1990.47	15.92
1990.8	13.96
1991.13	14.72
1991.46	13.16
1991.79	9.92
1992.13	9.76
1992.46	11.4
1992.79	11.24
1993.12	10.8
1993.45	9.56
1993.79	9.48
1994.12	7.16
1994.45	5.72
1994.78	5.76
1995.11	8.8
1995.45	7.92
1995.78	8.2
1996.11	8.2
1996.44	7.12
1996.77	4.84
1997.1	6.08
1997.44	6.08
1997.77	6.08
1998.1	5.6
1998.43	5.16
1998.76	3.8
1999.09	4.08
1999.43	2.44
1999.76	2.6
2000.09	2.28
2000.42	2.24
2000.75	0.76
2001.08	1.56
2001.41	1.52
2001.75	1.2
2002.08	1.08
2002.41	1.36
2002.74	0.88
2003.07	0.64
2003.4	0.6
2003.73	0.64
2004.06	1.28
2004.4	1.32
2004.73	1.16
2005.06	1.8
2005.39	1.64
2005.72	0.88
2006.05	1.16
2006.38	1.56
2006.71	1.8
2007.04	2.52
2007.37	2.72
2007.71	3.08
2008.04	2.72
2008.37	2.28
2008.7	1.88
2009.03	2.2
2009.36	1.92
2009.69	2.8
2010.02	2.68
2010.35	2.52
2010.68	2.84
2011.01	2.76
2011.34	2.6
2011.67	2.92
2012.01	2.92
2012.34	2.24
2012.67	2.2
2013	2.32
2013.33	1.92
2013.66	2.92
2013.99	3.32
2014.32	3.96
2014.65	3.68
2014.98	4.24
2015.31	4.08
2015.64	4.08
2015.97	3.44
2016.3	3.08
2016.63	2.84
2016.96	2.68
2017.29	2.4
2017.62	4.24
2017.95	4.92
2018.28	5.76
2018.61	6.96
2018.94	8.04
2019.27	6.52
2019.6	6.84
2019.93	6.44
2020.26	6.4
2020.59	7
2020.92	8.2
2021.25	8.04
2021.58	8.68
2021.91	9
2022.24	9.48
2022.57	9
2022.9	10.28
2023.23	11.04
2023.56	11.04
2023.89	11.56
2024.22	11.76
2024.55	11.76
2024.88	11.84
2025.21	11.4
2025.54	10.28
2025.87	10.44
2026.2	10.24
2026.53	10.16
2026.86	10.84
2027.19	11.08
2027.52	12.48
2027.85	11.68
2028.18	12.08
2028.51	12.72
2028.84	12.36
2029.16	12.08
2029.49	13
2029.82	12.88
2030.15	12.08
2030.48	11.96
2030.81	11.32
2031.14	11.56
2031.47	11.72
2031.8	11.92
2032.13	13.96
2032.46	14.16
2032.79	14.48
2033.12	14.48
2033.44	14.88
2033.77	12.84
2034.1	12.6
2034.43	13.12
2034.76	12.24
2035.09	11.16
2035.42	11.76
2035.75	12.64
2036.08	10.64
2036.41	10.16
2036.73	10.56
2037.06	10.08
2037.39	7.72
2037.72	7.44
2038.05	7.6
2038.38	7.12
2038.71	7.56
2039.04	7.32
2039.36	7.88
2039.69	7.84
2040.02	7.32
2040.35	7.64
2040.68	8.68
2041.01	9.52
2041.34	9.44
2041.66	9.08
2041.99	8.24
2042.32	8.32
2042.65	7.12
2042.98	6.6
2043.31	7.44
2043.63	6.56
2043.96	6.36
2044.29	6.08
2044.62	6.2
2044.95	4.52
2045.28	4.4
2045.6	4.28
2045.93	4.84
2046.26	4.48
2046.59	5.72
2046.92	5.32
2047.24	4.6
2047.57	3.6
2047.9	3.84
2048.23	3.52
2048.56	3.76
2048.88	3.76
2049.21	4.04
2049.54	4.28
2049.87	3.44
2050.2	3.08
2050.52	3.08
2050.85	2.84
2051.18	1.56
2051.51	1.56
2051.83	1.52
2052.16	1.08
2052.49	0.68
2052.82	1.08
2053.15	1.72
2053.47	2
2053.8	2
2054.13	2.04
2054.46	1.68
2054.78	1.08
2055.11	1.12
2055.44	1.08
2055.77	0.88
2056.09	0.8
2056.42	0.6
2056.75	0.2
2057.08	0.44
2057.4	0.64
2057.73	0.68
2058.06	0.68
2058.38	0.8
2058.71	0.8
2059.04	1
2059.37	1.2
2059.69	1.64
2060.02	2.28
2060.35	2.24
2060.67	2.12
2061	2.44
2061.33	1.8
2061.66	1.24
2061.98	1.24
2062.31	1.24
2062.64	1.12
2062.96	1.32
2063.29	1.24
2063.62	1.28
2063.94	1.12
2064.27	0.68
2064.6	-0.08
2064.92	-0.04
2065.25	-0.12
2065.58	-0.28
2065.91	-0.28
2066.23	0.36
2066.56	0.24
2066.89	0.16
2067.21	0.16
2067.54	0.36
2067.87	0.92
2068.19	0.88
2068.52	0.8
2068.84	1.08
2069.17	0.88
2069.5	0.36
2069.82	0.16
2070.15	0.32
2070.48	0.04
2070.8	0.04
2071.13	0.24
2071.46	0.6
2071.78	0.56
2072.11	1.28
2072.43	1.36
2072.76	1.6
2073.09	2.04
2073.41	2.12
2073.74	1.52
2074.07	1.56
2074.39	1.52
2074.72	1.4
2075.04	1.4
2075.37	1.28
2075.7	1.44
2076.02	1.4
2076.35	0.92
2076.67	1
2077	1.32
2077.33	1.12
2077.65	0.92
2077.98	0.92
2078.3	0.76
2078.63	0.52
2078.95	0.6
2079.28	0.8
2079.61	0.44
2079.93	0.32
2080.26	0.24
2080.58	0.08
2080.91	-0.12
2081.23	0.92
2081.56	1.08
2081.89	1.6
2082.21	2.12
2082.54	1.92
2082.86	1.4
2083.19	1.48
2083.51	1
2083.84	0.76
2084.16	0.88
2084.49	0.88
2084.81	0.8
2085.14	0.96
2085.46	1.32
2085.79	1.52
2086.12	1.36
2086.44	1.16
2086.77	0.96
2087.09	0.56
2087.42	0.36
2087.74	0.64
2088.07	0.76
2088.39	0.96
2088.72	0.92
2089.04	0.84
2089.37	1
2089.69	1.04
2090.02	0.84
2090.34	0.24
2090.67	0.4
2090.99	-2.08
2091.32	-2.24
2091.64	-2.24
2091.97	-1.84
2092.29	-2
2092.62	0.04
2092.94	0.12
2093.26	0.24
2093.59	0.24
2093.91	-0.48
2094.24	-0.48
2094.56	-0.16
2094.89	-0.28
2095.21	-0.08
2095.54	0.6
2095.86	0.96
2096.19	0.56
2096.51	0.96
2096.84	0.76
2097.16	0.76
2097.48	0.88
2097.81	1.04
2098.13	0.88
2098.46	0.72
2098.78	1
2099.11	1.04
2099.43	0.88
2099.75	0.88
2100.08	1.04
2100.4	0.88
2100.73	0.88
2101.05	0.88
2101.38	0.72
2101.7	0.72
2102.02	0.6
2102.35	0.32
2102.67	0.44
2103	0.36
2103.32	0.36
2103.64	0.36
2103.97	0.4
2104.29	1
2104.62	1
2104.94	1
2105.26	0.72
2105.59	0.52
2105.91	-0.2
2106.23	-0.2
2106.56	-0.2
2106.88	0.12
2107.21	0.08
2107.53	0.32
2107.85	0.4
2108.18	0.4
2108.5	0.44
2108.82	0.48
2109.15	0.48
2109.47	0.72
2109.79	0.72
2110.12	0.72
2110.44	0.68
2110.76	0.6
2111.09	0.28
2111.41	0.28
2111.73	0.44
2112.06	0.48
2112.38	0.52
2112.7	-0.08
2113.03	-0.08
2113.35	-0.28
2113.67	-0.36
2114	-0.56
2114.32	0.12
2114.64	0.2
2114.97	0.2
2115.29	0.52
2115.61	0.6
2115.94	0.72
2116.26	0.68
2116.58	0.64
2116.91	-0.56
2117.23	-0.4
2117.55	-0.6
2117.87	-0.64
2118.2	-0.64
2118.52	0.24
2118.84	0.16
2119.17	0.16
2119.49	0.76
2119.81	0.76
2120.13	0.8
2120.46	1
2120.78	0.08
2121.1	-0.52
2121.42	-0.52
2121.75	-0.32
2122.07	-0.68
2122.39	0.24
2122.72	0.52
2123.04	0.52
2123.36	0.36
2123.68	0.36
2124.01	0.36
2124.33	0.16
2124.65	0.32
2124.97	0.44
2125.29	0.52
2125.62	0.72
2125.94	0.84
2126.26	0.76
2126.58	0.56
2126.91	-0.04
2127.23	0.16
2127.55	-0.04
2127.87	-0.08
2128.2	0.16
2128.52	0.96
2128.84	1
2129.16	1
2129.48	1.04
2129.81	0.8
2130.13	0.56
2130.45	0.12
2130.77	0.16
2131.09	0.08
2131.42	0.44
2131.74	0.4
2132.06	0.4
2132.38	0.44
2132.7	0.56
2133.02	0.2
2133.35	0.28
2133.67	0.4
2133.99	0.32
2134.31	-0.4
2134.63	-0.08
2134.96	-0.12
2135.28	-0.24
2135.6	-1.44334e-17
2135.92	0.6
2136.24	0.28
2136.56	0.24
2136.88	0.32
2137.21	0.08
2137.53	0.16
2137.85	0.24
2138.17	-0.12
2138.49	-0.12
2138.81	0.04
2139.13	1.05473e-17
2139.46	-0.04
2139.78	0.36
2140.1	0.28
2140.42	0.36
2140.74	0.56
2141.06	0.56
2141.38	0.6
2141.7	0.72
2142.03	0.48
2142.35	0.4
2142.67	0.36
2142.99	0.48
2143.31	0.52
2143.63	0.88
2143.95	0.72
2144.27	0.8
2144.59	0.6
2144.91	0.32
2145.24	1.74861e-17
2145.56	1.74861e-17
2145.88	2.10945e-17
2146.2	2.10945e-17
2146.52	0.32
2146.84	0.28
2147.16	0.76
2147.48	0.68
2147.8	0.68
2148.12	0.64
2148.44	0.8
2148.76	0.32
2149.08	0.4
2149.41	0.4
2149.73	0.24
2150.05	0.24
2150.37	0.48
2150.69	0.4
2151.01	0.48
2151.33	0.48
2151.65	0.32
2151.97	0.2
2152.29	0.2
2152.61	-0.28
2152.93	-0.28
2153.25	-0.28
2153.57	-0.4
2153.89	-0.4
2154.21	-0.28
2154.53	-0.28
2154.85	-0.24
2155.17	-0.24
2155.49	-0.24
2155.81	0.04
2156.13	0.04
2156.45	0.4
2156.77	0.4
2157.09	0.56
2157.41	0.6
2157.73	0.6
2158.05	0.24
2158.37	0.44
2158.69	0.32
2159.01	0.28
2159.33	0.28
2159.65	0.24
2159.97	0.08
2160.29	0.04
2160.61	0.12
2160.93	0.24
2161.25	0.24
2161.57	0.28
2161.89	0.36
2162.21	0.28
2162.53	0.36
2162.85	-0.16
2163.17	-0.12
2163.49	-0.2
2163.81	0.04
2164.13	0.04
2164.45	0.04
2164.77	-0.08
2165.08	-0.08
2165.4	-0.16
2165.72	-0.36
2166.04	0.16
2166.36	0.24
2166.68	0.48
2167	0.36
2167.32	0.52
2167.64	0.52
2167.96	0.44
2168.28	0.2
2168.6	0.16
2168.92	0.12
2169.24	0.2
2169.55	0.2
2169.87	0.36
2170.19	0.36
2170.51	0.24
2170.83	0.16
2171.15	0.16
2171.47	0
2171.79	0.04
2172.11	0.04
2172.43	0.04
2172.74	0.32
2173.06	0.32
2173.38	0.28
2173.7	0.28
2174.02	0.28
2174.34	0.32
2174.66	0.32
2174.98	0.32
2175.29	0.44
2175.61	0.44
2175.93	0.24
2176.25	0.28
2176.57	0.48
2176.89	0.36
2177.21	0.52
2177.52	0.56
2177.84	0.6
2178.16	0.64
2178.48	0.8
2178.8	0.84
2179.12	0.96
2179.43	1.16
2179.75	0.04
2180.07	-1.04361e-16
2180.39	-0.04
2180.71	-0.28
2181.03	-0.56
2181.34	0.6
2181.66	0.6
2181.98	0.44
2182.3	0.52
2182.62	0.52
2182.93	-0.16
2183.25	-0.28
2183.57	-0.28
2183.89	-0.4
2184.21	-0.4
2184.52	0
2184.84	0.04
2185.16	0.28
2185.48	0.48
2185.8	0.48
2186.11	0.76
2186.43	0.72
2186.75	0.48
2187.07	-2.66443e-17
2187.39	-0.68
2187.7	-0.76
2188.02	-1.24
2188.34	-1.16
2188.66	-0.88
2188.97	-0.2
2189.29	-0.4
2189.61	0.08
2189.93	0.6
2190.24	0.6
2190.56	0.6
2190.88	0.6
2191.2	0.6
2191.51	0
2191.83	0.24
2192.15	0.24
2192.47	0.24
2192.78	0.24
2193.1	0.32
2193.42	0.24
2193.74	0.28
2194.05	0.28
2194.37	0.28
2194.69	0.36
2195	-0.08
2195.32	-0.04
2195.64	0.16
2195.96	0.24
2196.27	0.08
2196.59	-0.24
2196.91	-0.32
2197.22	-0.36
2197.54	-0.44
2197.86	-0.44
2198.18	0.16
2198.49	0.68
2198.81	0.56
2199.13	0.72
2199.44	0.88
2199.76	0.88
2200.08	0.4
2200.39	0.4
2200.71	0.28
2201.03	0.12
2201.34	0.12
2201.66	0.08
2201.98	0.04
2202.29	0
2202.61	0
2202.93	0
2203.24	0
2203.56	0
2203.88	0
2204.19	0.08
2204.51	0.16
2204.83	0.16
2205.14	0.28
2205.46	0.44
2205.78	0.4
2206.09	0.32
2206.41	0.12
2206.72	-0.12
2207.04	-0.28
2207.36	-0.72
2207.67	-0.72
2207.99	-0.52
2208.31	-0.24
2208.62	-0.24
2208.94	0.24
2209.25	0.36
2209.57	0.36
2209.89	0.28
2210.2	0.28
2210.52	0.2
2210.83	0.12
2211.15	0.12
2211.47	0.04
2211.78	0.04
2212.1	0.12
2212.41	0.08
2212.73	0.08
2213.05	0.08
2213.36	0.08
2213.68	0.04
2213.99	0.32
2214.31	0.44
2214.62	0.44
2214.94	0.44
2215.26	0.4
2215.57	0.6
2215.89	0.48
2216.2	0.48
2216.52	0.56
2216.83	0.68
2217.15	0.2
2217.46	0.2
2217.78	0.2
2218.1	0.16
2218.41	0.04
2218.73	0.04
2219.04	0.04
2219.36	0.04
2219.67	0
2219.99	0
2220.3	0
2220.62	0
2220.93	0
2221.25	0.16
2221.56	0.4
2221.88	0.52
2222.19	0.56
2222.51	0.56
2222.82	-1
2223.14	-0.88
2223.45	-0.88
2223.77	-0.92
2224.08	-0.92
2224.4	0.56
2224.71	0.2
2225.03	0.32
2225.34	0.48
2225.66	-0.92
2225.97	-1
2226.29	-1
2226.6	-1.24
2226.92	-1.4
2227.23	0.04
2227.55	0.04
2227.86	0.12
2228.18	0.12
2228.49	0.12
2228.81	0.2
2229.12	0.2
2229.44	0.12
2229.75	0.2
2230.07	0.2
2230.38	0.08
2230.69	0.12
2231.01	0.12
2231.32	0.04
2231.64	0.28
2231.95	0.28
2232.27	0.24
2232.58	0.24
2232.9	0.32
2233.21	0.08
2233.52	0.08
2233.84	0.08
2234.15	0.08
2234.47	0.16
2234.78	0.16
2235.1	0.28
2235.41	0.28
2235.72	0.28
2236.04	0.12
2236.35	0.12
2236.67	-0.6
2236.98	-0.6
2237.29	-0.6
2237.61	-0.6
2237.92	-0.6
2238.24	0
2238.55	0.04
2238.86	0.04
2239.18	0.04
2239.49	-0.68
2239.8	-0.68
2240.12	-0.56
2240.43	-0.4
2240.75	-0.4
2241.06	0.44
2241.37	0.64
2241.69	0.68
2242	0.64
2242.31	0.64
2242.63	0.6
2242.94	0.48
2243.26	-0.32
2243.57	-0.44
2243.88	-0.44
2244.2	-0.24
2244.51	-0.16
2244.82	0.44
2245.14	0.44
2245.45	0.48
2245.76	0.2
2246.08	0.04
2246.39	0.04
2246.7	0.04
2247.02	0.56
2247.33	0.56
2247.64	0.56
2247.96	0.56
2248.27	0.56
2248.58	-1
2248.9	-0.92
2249.21	-0.92
2249.52	-0.76
2249.83	-0.6
2250.15	0.4
2250.46	0.32
2250.77	0.44
2251.09	0.32
2251.4	0.16
2251.71	0.16
2252.03	0.16
2252.34	0.04
2252.65	0
2252.96	0.08
2253.28	0.16
2253.59	0.16
2253.9	0.16
2254.21	0.28
2254.53	0.4
2254.84	-0.08
2255.15	0.12
2255.47	0.24
2255.78	0.16
2256.09	-0.04
2256.4	0.36
2256.72	0.16
2257.03	0.04
2257.34	0
2257.65	0
2257.97	0
2258.28	0
2258.59	0.12
2258.9	0.12
2259.22	0.12
2259.53	0.12
2259.84	0.16
2260.15	0.08
2260.46	0.12
2260.78	0.32
2261.09	0.32
2261.4	0.44
2261.71	0.4
2262.03	0.36
2262.34	0.16
2262.65	0.16
2262.96	0
2263.27	0
2263.59	0
2263.9	0
2264.21	0
2264.52	0.04
2264.83	0.08
2265.15	0.08
2265.46	0.08
2265.77	0.08
2266.08	0.16
2266.39	0.16
2266.7	0.32
2267.02	0.4
2267.33	0
2267.64	-0.12
2267.95	-0.16
2268.26	-0.32
2268.57	-0.36
2268.89	0.2
2269.2	0.2
2269.51	0.2
2269.82	0.28
2270.13	0.24
2270.44	0.16
2270.76	-0.24
2271.07	-0.24
2271.38	-0.84
2271.69	-0.72
2272	-0.8
2272.31	-0.6
2272.62	-1.2
2272.93	-0.68
2273.25	-0.8
2273.56	-0.8
2273.87	-0.48
2274.18	0.12
2274.49	0.12
2274.8	0.12
2275.11	0.24
2275.42	0.28
2275.74	0.28
2276.05	0.56
2276.36	0.56
2276.67	0.44
2276.98	0.32
2277.29	0.48
2277.6	0.2
2277.91	0.2
2278.22	0.04
2278.53	1.33221e-17
2278.85	-0.12
2279.16	-1.12
2279.47	-1.12
2279.78	-0.96
2280.09	-0.96
2280.4	-1
2280.71	0.04
2281.02	0.04
2281.33	0.04
2281.64	0.16
2281.95	0.16
2282.26	0.12
2282.57	0.16
2282.88	0.44
2283.19	0.4
2283.5	0.4
2283.82	0.52
2284.13	0.48
2284.44	0.2
2284.75	-0.36
2285.06	-0.36
2285.37	-0.28
2285.68	-0.28
2285.99	-0.12
2286.3	0.36
2286.61	0.36
2286.92	0.16
2287.23	0.16
2287.54	0
2287.85	0
2288.16	0
2288.47	0
2288.78	0.04
2289.09	0.04
2289.4	0.12
2289.71	0.36
2290.02	0.48
2290.33	0.44
2290.64	0.48
2290.95	0.2
2291.26	-0.04
2291.57	-0.04
2291.88	-0.44
2292.19	-0.48
2292.5	-0.28
2292.81	-0.28
2293.12	-0.4
2293.43	0
2293.74	0
2294.05	0
2294.36	0
2294.67	0
2294.98	0
2295.29	0
2295.6	0
2295.91	0
2296.21	0
2296.52	0
2296.83	0
2297.14	0
2297.45	0
2297.76	0
2298.07	0
2298.38	0
2298.69	0
2299	0
2299.31	0
2299.62	0
2299.93	0
2300.24	0
2300.55	0
2300.85	0
2301.16	0
2301.47	0
2301.78	0
2302.09	0
2302.4	0
2302.71	0
2303.02	0
2303.33	0
2303.64	0
2303.94	0
2304.25	0
2304.56	0
2304.87	0
2305.18	0
2305.49	0
2305.8	0
2306.11	0
2306.42	0
2306.72	0
2307.03	0
2307.34	0
2307.65	0
2307.96	0
2308.27	0
2308.58	0
2308.88	0
2309.19	0
2309.5	0
2309.81	0
2310.12	0
2310.43	0
2310.74	0
2311.04	0
2311.35	0
2311.66	0
2311.97	0
2312.28	0
2312.59	0
2312.89	0
2313.2	0
2313.51	0
2313.82	0
2314.13	0
2314.43	0
2314.74	0
2315.05	0
2315.36	0
2315.67	0
2315.97	0
2316.28	0
2316.59	0
2316.9	0
2317.21	0
2317.51	0
2317.82	0
2318.13	0
2318.44	0
2318.75	0
2319.05	0
2319.36	0
2319.67	0
2319.98	0
2320.28	0
2320.59	0
2320.9	0
2321.21	0
2321.51	0
2321.82	0
2322.13	0
2322.44	0
2322.74	0
2323.05	0
2323.36	0
2323.67	0
2323.97	0
2324.28	0
2324.59	0
2324.9	0
2325.2	0
2325.51	0
2325.82	0
2326.13	0
2326.43	0
2326.74	0
2327.05	0
2327.35	0
2327.66	0
2327.97	0
2328.27	0
2328.58	0
2328.89	0
2329.2	0
2329.5	0
2329.81	0
2330.12	0
2330.42	0
2330.73	0
2331.04	0
2331.34	0
2331.65	0
2331.96	0
2332.26	0
2332.57	0
2332.88	0
2333.18	0
2333.49	0
2333.8	0
2334.1	0
2334.41	0
2334.72	0
2335.02	0
2335.33	0
2335.64	0
2335.94	0
2336.25	0
2336.56	0
2336.86	0
2337.17	0
2337.48	0
2337.78	0
2338.09	0
2338.39	0
2338.7	0
2339.01	0
2339.31	0
2339.62	0
2339.93	0
2340.23	0
2340.54	0
2340.84	0
2341.15	0
2341.46	0
2341.76	0
2342.07	0
2342.37	0
2342.68	0
2342.99	0
2343.29	0
2343.6	0
2343.9	0
2344.21	0
2344.51	0
2344.82	0
2345.13	0
2345.43	0
2345.74	0
2346.04	0
2346.35	0
2346.65	0
2346.96	0
2347.27	0
2347.57	0
2347.88	0
2348.18	0
2348.49	0
2348.79	0
2349.1	0
2349.4	0
2349.71	0
2350.01	0
2350.32	0
2350.63	0
2350.93	0
2351.24	0
2351.54	0
2351.85	0
2352.15	0
2352.46	0
2352.76	0
2353.07	0
2353.37	0
2353.68	0
2353.98	0
2354.29	0
2354.59	0
2354.9	0
2355.2	0
2355.51	0
2355.81	0
2356.12	0
2356.42	0
2356.73	0
2357.03	0
2357.34	0
2357.64	0
2357.95	0
2358.25	0
2358.55	0
2358.86	0
2359.16	0
2359.47	0
2359.77	0
2360.08	0
2360.38	0
2360.69	0
2360.99	0
2361.3	0
2361.6	0
2361.9	0
2362.21	0
2362.51	0
2362.82	0
2363.12	0
2363.43	0
2363.73	0
2364.04	0
2364.34	0
2364.64	0
2364.95	0
2365.25	0
2365.56	0
2365.86	0
2366.16	0
2366.47	0
2366.77	0
2367.08	0
2367.38	0
2367.68	0
2367.99	0
2368.29	0
2368.6	0
2368.9	0
2369.2	0
2369.51	0
2369.81	0
2370.12	0
2370.42	0
2370.72	0
2371.03	0
2371.33	0
2371.63	0
2371.94	0
2372.24	0
2372.55	0
2372.85	0
2373.15	0
2373.46	0
2373.76	0
2374.06	0
2374.37	0
2374.67	0
2374.97	0
2375.28	0
2375.58	0
2375.88	0
2376.19	0
2376.49	0
2376.79	0
2377.1	0
2377.4	0
2377.7	0
2378.01	0
2378.31	0
2378.61	0
2378.92	0
2379.22	0
2379.52	0
2379.82	0
2380.13	0
2380.43	0
2380.73	0
2381.04	0
2381.34	0
2381.64	0
2381.95	0
2382.25	0
2382.55	0
2382.85	0
2383.16	0
2383.46	0
2383.76	0
2384.06	0
2384.37	0
2384.67	0
2384.97	0
2385.28	0
2385.58	0
2385.88	0
2386.18	0
2386.49	0
2386.79	0
2387.09	0
2387.39	0
2387.69	0
2388	0
2388.3	0
2388.6	0
2388.9	0
2389.21	0
2389.51	0
2389.81	0
2390.11	0
2390.42	0
2390.72	0
2391.02	0
2391.32	0
2391.62	0
2391.93	0
2392.23	0
2392.53	0
2392.83	0
2393.13	0
2393.44	0
2393.74	0
2394.04	0
2394.34	0
2394.64	0
2394.95	0
2395.25	0
2395.55	0
2395.85	0
2396.15	0
2396.45	0
2396.76	0
2397.06	0
2397.36	0
2397.66	0
2397.96	0
2398.26	0
2398.57	0
2398.87	0
2399.17	0
2399.47	0
2399.77	0
2400.07	0
2400.37	0
2400.68	0
2400.98	0
2401.28	0
2401.58	0
2401.88	0
2402.18	0
2402.48	0
2402.79	0
2403.09	0
2403.39	0
2403.69	0
2403.99	0
2404.29	0
2404.59	0
2404.89	0
2405.19	0
2405.5	0
2405.8	0
2406.1	0
2406.4	0
2406.7	0
2407	0
2407.3	0
2407.6	0
2407.9	0
2408.2	0
2408.5	0
2408.8	0
2409.11	0
2409.41	0
2409.71	0
2410.01	0
2410.31	0
2410.61	0
2410.91	0
2411.21	0
2411.51	0
2411.81	0
2412.11	0
2412.41	0
2412.71	0
2413.01	0
2413.31	0
2413.61	0
2413.91	0
2414.21	0
2414.51	0
2414.81	0
2415.12	0
2415.42	0
2415.72	0
2416.02	0
2416.32	0
2416.62	0
2416.92	0
2417.22	0
2417.52	0
2417.82	0
2418.12	0
2418.42	0
2418.72	0
2419.02	0
2419.32	0
2419.62	0
2419.92	0
2420.22	0
2420.52	0
2420.82	0
2421.12	0
2421.42	0
2421.71	0
2422.01	0
2422.31	0
2422.61	0
2422.91	0
2423.21	0
2423.51	0
2423.81	0
2424.11	0
2424.41	0
2424.71	0
2425.01	0
2425.31	0
2425.61	0
2425.91	0
2426.21	0
2426.51	0
2426.81	0
2427.11	0
2427.41	0
2427.7	0
2428	0
2428.3	0
2428.6	0
2428.9	0
2429.2	0
2429.5	0
2429.8	0
2430.1	0
2430.4	0
2430.7	0
2430.99	0
2431.29	0
2431.59	0
2431.89	0
2432.19	0
2432.49	0
2432.79	0
2433.09	0
2433.39	0
2433.68	0
2433.98	0
2434.28	0
2434.58	0
2434.88	0
2435.18	0
2435.48	0
2435.78	0
2436.07	0
2436.37	0
2436.67	0
2436.97	0
2437.27	0
2437.57	0
2437.86	0
2438.16	0
2438.46	0
2438.76	0
2439.06	0
2439.36	0
2439.66	0
2439.95	0
2440.25	0
2440.55	0
2440.85	0
2441.15	0
2441.44	0
2441.74	0
2442.04	0
2442.34	0
2442.64	0
2442.93	0
2443.23	0
2443.53	0
2443.83	0
2444.13	0
2444.42	0
2444.72	0
2445.02	0
2445.32	0
2445.62	0
2445.91	0
2446.21	0
2446.51	0
2446.81	0
2447.1	0
2447.4	0
2447.7	0
2448	0
2448.3	0
2448.59	0
2448.89	0
2449.19	0
2449.49	0
2449.78	0
2450.08	0
2450.38	0
2450.68	0
2450.97	0
2451.27	0
2451.57	0
2451.87	0
2452.16	0
2452.46	0
2452.76	0
2453.05	0
2453.35	0
2453.65	0
2453.95	0
2454.24	0
2454.54	0
2454.84	0
2455.13	0
2455.43	0
2455.73	0
2456.03	0
2456.32	0
2456.62	0
2456.92	0
2457.21	0
2457.51	0
2457.81	0
2458.1	0
2458.4	0
2458.7	0
2458.99	0
2459.29	0
2459.59	0
2459.88	0
2460.18	0
2460.48	0
2460.77	0
2461.07	0
2461.37	0
2461.66	0
2461.96	0
2462.26	0
2462.55	0
2462.85	0
2463.15	0
2463.44	0
2463.74	0
2464.04	0
2464.33	0
2464.63	0
2464.92	0
2465.22	0
2465.52	0
2465.81	0
2466.11	0
2466.41	0
2466.7	0
2467	0
2467.29	0
2467.59	0
2467.89	0
2468.18	0
2468.48	0
2468.77	0
2469.07	0
2469.37	0
2469.66	0
2469.96	0
2470.25	0
2470.55	0
2470.84	0
2471.14	0
2471.44	0
2471.73	0
2472.03	0
2472.32	0
2472.62	0
2472.91	0
2473.21	0
2473.51	0
2473.8	0
2474.1	0
2474.39	0
2474.69	0
2474.98	0
2475.28	0
2475.57	0
2475.87	0
2476.17	0
2476.46	0
2476.76	0
2477.05	0
2477.35	0
2477.64	0
2477.94	0
2478.23	0
2478.53	0
2478.82	0
2479.12	0
2479.41	0
2479.71	0
2480	0
2480.3	0
2480.59	0
2480.89	0
2481.18	0
2481.48	0
2481.77	0
2482.07	0
2482.36	0
2482.66	0
2482.95	0
2483.25	0
2483.54	0
2483.84	0
2484.13	0
2484.43	0
2484.72	0
2485.02	0
2485.31	0
2485.6	0
2485.9	0
2486.19	0
2486.49	0
2486.78	0
2487.08	0
2487.37	0
2487.67	0
2487.96	0
2488.26	0
2488.55	0
2488.84	0
2489.14	0
2489.43	0
2489.73	0
2490.02	0
2490.32	0
2490.61	0
2490.9	0
2491.2	0
2491.49	0
2491.79	0
2492.08	0
2492.37	0
2492.67	0
2492.96	0
2493.26	0
2493.55	0
2493.84	0
2494.14	0
2494.43	0
2494.73	0
2495.02	0
2495.31	0
2495.61	0
2495.9	0
2496.2	0
2496.49	0
2496.78	0
2497.08	0
2497.37	0
2497.66	0
2497.96	0
2498.25	0
2498.54	0
2498.84	0
2499.13	0
2499.43	0
2499.72	0
2500.01	0
2500.31	0
2500.6	0
2500.89	0
2501.19	0
2501.48	0
2501.77	0
2502.07	0
2502.36	0
2502.65	0
2502.95	0
2503.24	0
2503.53	0
2503.82	0
2504.12	0
2504.41	0
2504.7	0
2505	0
2505.29	0
2505.58	0
2505.88	0
2506.17	0
2506.46	0
2506.76	0
2507.05	0
2507.34	0
2507.63	0
2507.93	0
2508.22	0
2508.51	0
2508.8	0
2509.1	0
2509.39	0
2509.68	0
2509.98	0
2510.27	0
2510.56	0
2510.85	0
2511.15	0
2511.44	0
2511.73	0
2512.02	0
2512.32	0
2512.61	0
2512.9	0
2513.19	0
2513.49	0
2513.78	0
2514.07	0
2514.36	0
2514.65	0
2514.95	0
2515.24	0
2515.53	0
2515.82	0
2516.12	0
2516.41	0
2516.7	0
2516.99	0
2517.28	0
2517.58	0
2517.87	0
2518.16	0
2518.45	0
2518.74	0
2519.04	0
2519.33	0
2519.62	0
2519.91	0
2520.2	0
2520.5	0
2520.79	0
2521.08	0
2521.37	0
2521.66	0
2521.95	0
2522.25	0
2522.54	0
2522.83	0
2523.12	0
2523.41	0
2523.7	0
2523.99	0
2524.29	0
2524.58	0
2524.87	0
2525.16	0
2525.45	0
2525.74	0
2526.03	0
2526.33	0
2526.62	0
2526.91	0
2527.2	0
2527.49	0
2527.78	0
2528.07	0
2528.36	0
2528.66	0
2528.95	0
2529.24	0
2529.53	0
2529.82	0
2530.11	0
2530.4	0
2530.69	0
2530.98	0
2531.27	0
2531.57	0
2531.86	0
2532.15	0
2532.44	0
2532.73	0
2533.02	0
2533.31	0
2533.6	0
2533.89	0
2534.18	0
2534.47	0
2534.76	0
2535.05	0
2535.35	0
2535.64	0
2535.93	0
2536.22	0
2536.51	0
2536.8	0
2537.09	0
2537.38	0
2537.67	0
2537.96	0
2538.25	0
2538.54	0
2538.83	0
2539.12	0
2539.41	0
2539.7	0
2539.99	0
2540.28	0
2540.57	0
2540.86	0
2541.15	0
2541.44	0
2541.73	0
2542.02	0
2542.31	0
2542.6	0
2542.89	0
2543.18	0
2543.47	0
2543.76	0
2544.05	0
2544.34	0
2544.63	0
2544.92	0
2545.21	0
2545.5	0
2545.79	0
2546.08	0
2546.37	0
2546.66	0
2546.95	0
2547.24	0
2547.53	0
2547.82	0
2548.11	0
2548.4	0
2548.69	0
2548.98	0
2549.27	0
2549.55	0
2549.84	0
2550.13	0
2550.42	0
2550.71	0
2551	0
2551.29	0
2551.58	0
2551.87	0
2552.16	0
2552.45	0
2552.74	0
2553.03	0
2553.31	0
2553.6	0
2553.89	0
2554.18	0
2554.47	0
2554.76	0
2555.05	0
2555.34	0
2555.63	0
2555.92	0
2556.2	0
2556.49	0
2556.78	0
2557.07	0
2557.36	0
2557.65	0
2557.94	0
2558.23	0
2558.51	0
2558.8	0
2559.09	0
2559.38	0
2559.67	0
2559.96	0
2560.25	0
2560.53	0
2560.82	0
2561.11	0
2561.4	0
2561.69	0
2561.98	0
2562.27	0
2562.55	0
2562.84	0
2563.13	0
2563.42	0
2563.71	0
2564	0
2564.28	0
2564.57	0
2564.86	0
2565.15	0
2565.44	0
2565.72	0
2566.01	0
2566.3	0
2566.59	0
2566.88	0
2567.16	0
2567.45	0
2567.74	0
2568.03	0
2568.32	0
2568.6	0
2568.89	0
2569.18	0
2569.47	0
2569.75	0

