Source: Spectrum Viewer

Chart: Pulse Spectrum

Series: 
Wavelength (nm)	S (a.u.)
1179.9	0
1180.29	0
1180.68	0
1181.06	0
1181.45	0
1181.83	0
1182.22	0
1182.6	0
1182.99	0
1183.38	0
1183.76	0
1184.15	0
1184.53	0
1184.92	0
1185.3	0
1185.69	0
1186.07	0
1186.46	0
1186.85	0
1187.23	0
1187.62	0
1188	0
1188.39	0
1188.77	0
1189.16	0
1189.54	0
1189.93	0
1190.31	0
1190.7	0
1191.08	0
1191.47	0
1191.85	0
1192.24	0
1192.62	0
1193.01	0
1193.39	0
1193.78	0
1194.16	0
1194.55	0
1194.93	0
1195.32	0
1195.7	0
1196.09	0
1196.47	0
1196.86	0
1197.24	0
1197.63	0
1198.01	0
1198.4	0
1198.78	0
1199.16	0
1199.55	0
1199.93	0
1200.32	0
1200.7	0
1201.09	0
1201.47	0
1201.86	0
1202.24	0
1202.63	0
1203.01	0
1203.39	0
1203.78	0
1204.16	0
1204.55	0
1204.93	0
1205.32	0
1205.7	0
1206.08	0
1206.47	0
1206.85	0
1207.24	0
1207.62	0
1208	0
1208.39	0
1208.77	0
1209.16	0
1209.54	0
1209.92	0
1210.31	0
1210.69	0
1211.08	0
1211.46	0
1211.84	0
1212.23	0
1212.61	0
1213	0
1213.38	0
1213.76	0
1214.15	0
1214.53	0
1214.91	0
1215.3	0
1215.68	0
1216.06	0
1216.45	0
1216.83	0
1217.22	0
1217.6	0
1217.98	0
1218.37	0
1218.75	0
1219.13	0
1219.52	0
1219.9	0
1220.28	0
1220.67	0
1221.05	0
1221.43	0
1221.82	0
1222.2	0
1222.58	0
1222.97	0
1223.35	0
1223.73	0
1224.11	0
1224.5	0
1224.88	0
1225.26	0
1225.65	0
1226.03	0
1226.41	0
1226.8	0
1227.18	0
1227.56	0
1227.94	0
1228.33	0
1228.71	0
1229.09	0
1229.47	0
1229.86	0
1230.24	0
1230.62	0
1231.01	0
1231.39	0
1231.77	0
1232.15	0
1232.54	0
1232.92	0
1233.3	0
1233.68	0
1234.07	0
1234.45	0
1234.83	0
1235.21	0
1235.6	0
1235.98	0
1236.36	0
1236.74	0
1237.12	0
1237.51	0
1237.89	0
1238.27	0
1238.65	0
1239.04	0
1239.42	0
1239.8	0
1240.18	0
1240.56	0
1240.95	0
1241.33	0
1241.71	0
1242.09	0
1242.47	0
1242.86	0
1243.24	0
1243.62	0
1244	0
1244.38	0
1244.77	0
1245.15	0
1245.53	0
1245.91	0
1246.29	0
1246.67	0
1247.06	0
1247.44	0
1247.82	0
1248.2	0
1248.58	0
1248.96	0
1249.34	0
1249.73	0
1250.11	0
1250.49	0
1250.87	0
1251.25	0
1251.63	0
1252.01	0
1252.4	0
1252.78	0
1253.16	0
1253.54	0
1253.92	0
1254.3	0
1254.68	0
1255.06	0
1255.45	0
1255.83	0
1256.21	0
1256.59	0
1256.97	0
1257.35	0
1257.73	0
1258.11	0
1258.49	0
1258.87	0
1259.26	0
1259.64	0
1260.02	0
1260.4	0
1260.78	0
1261.16	0
1261.54	0
1261.92	0
1262.3	0
1262.68	0
1263.06	0
1263.44	0
1263.82	0
1264.21	0
1264.59	0
1264.97	0
1265.35	0
1265.73	0
1266.11	0
1266.49	0
1266.87	0
1267.25	0
1267.63	0
1268.01	0
1268.39	0
1268.77	0
1269.15	0
1269.53	0
1269.91	0
1270.29	0
1270.67	0
1271.05	0
1271.43	0
1271.81	0
1272.19	0
1272.57	0
1272.95	0
1273.33	0
1273.71	0
1274.09	0
1274.47	0
1274.85	0
1275.23	0
1275.61	0
1275.99	0
1276.37	0
1276.75	0
1277.13	0
1277.51	0
1277.89	0
1278.27	0
1278.65	0
1279.03	0
1279.41	0
1279.79	0
1280.17	0
1280.55	0
1280.93	0
1281.31	0
1281.69	0
1282.07	0
1282.45	0
1282.82	0
1283.2	0
1283.58	0
1283.96	0
1284.34	0
1284.72	0
1285.1	0
1285.48	0
1285.86	0
1286.24	0
1286.62	0
1287	0
1287.38	0
1287.75	0
1288.13	0
1288.51	0
1288.89	0
1289.27	0
1289.65	0
1290.03	0
1290.41	0
1290.79	0
1291.17	0
1291.54	0
1291.92	0
1292.3	0
1292.68	0
1293.06	0
1293.44	0
1293.82	0
1294.2	0
1294.57	0
1294.95	0
1295.33	0
1295.71	0
1296.09	0
1296.47	0
1296.85	0
1297.22	0
1297.6	0
1297.98	0
1298.36	0
1298.74	0
1299.12	0
1299.5	0
1299.87	0
1300.25	0
1300.63	0
1301.01	0
1301.39	0
1301.77	0
1302.14	0
1302.52	0
1302.9	0
1303.28	0
1303.66	0
1304.03	0
1304.41	0
1304.79	0
1305.17	0
1305.55	0
1305.92	0
1306.3	0
1306.68	0
1307.06	0
1307.44	0
1307.81	0
1308.19	0
1308.57	0
1308.95	0
1309.32	0
1309.7	0
1310.08	0
1310.46	0
1310.84	0
1311.21	0
1311.59	0
1311.97	0
1312.35	0
1312.72	0
1313.1	0
1313.48	0
1313.86	0
1314.23	0
1314.61	0
1314.99	0
1315.37	0
1315.74	0
1316.12	0
1316.5	0
1316.87	0
1317.25	0
1317.63	0
1318.01	0
1318.38	0
1318.76	0
1319.14	0
1319.52	0
1319.89	0
1320.27	0
1320.65	0
1321.02	0
1321.4	0
1321.78	0
1322.15	0
1322.53	0
1322.91	0
1323.29	0
1323.66	0
1324.04	0
1324.42	0
1324.79	0
1325.17	0
1325.55	0
1325.92	0
1326.3	0
1326.68	0
1327.05	0
1327.43	0
1327.81	0
1328.18	0
1328.56	0
1328.94	0
1329.31	0
1329.69	0
1330.06	0
1330.44	0
1330.82	0
1331.19	0
1331.57	0
1331.95	0
1332.32	0
1332.7	0
1333.08	0
1333.45	0
1333.83	0
1334.2	0
1334.58	0
1334.96	0
1335.33	0
1335.71	0
1336.08	0
1336.46	0
1336.84	0
1337.21	0
1337.59	0
1337.96	0
1338.34	0
1338.72	0
1339.09	0
1339.47	0
1339.84	0
1340.22	0
1340.6	0
1340.97	0
1341.35	0
1341.72	0
1342.1	0
1342.47	0
1342.85	0
1343.23	0
1343.6	0
1343.98	0
1344.35	0
1344.73	0
1345.1	0
1345.48	0
1345.85	0
1346.23	0
1346.61	0
1346.98	0
1347.36	0
1347.73	0
1348.11	0
1348.48	0
1348.86	0
1349.23	0
1349.61	0
1349.98	0
1350.36	0
1350.73	0
1351.11	0
1351.48	0
1351.86	0
1352.23	0
1352.61	0
1352.98	0
1353.36	0
1353.73	0
1354.11	0
1354.48	0
1354.86	0
1355.23	0
1355.61	0
1355.98	0
1356.36	0
1356.73	0
1357.11	0
1357.48	0
1357.86	0
1358.23	0
1358.61	0
1358.98	0
1359.35	0
1359.73	0
1360.1	0
1360.48	0
1360.85	0
1361.23	0
1361.6	0
1361.98	0
1362.35	0
1362.72	0
1363.1	0
1363.47	0
1363.85	0
1364.22	0
1364.6	0
1364.97	0
1365.34	0
1365.72	0
1366.09	0
1366.47	0
1366.84	0
1367.22	0
1367.59	0
1367.96	0
1368.34	0
1368.71	0
1369.09	0
1369.46	-1
1369.83	-1
1370.21	-0.8
1370.58	-0.72
1370.96	-0.72
1371.33	0.4
1371.7	0.4
1372.08	0.2
1372.45	0.12
1372.82	0.12
1373.2	0
1373.57	0.28
1373.95	0.32
1374.32	0.48
1374.69	0.56
1375.07	0.56
1375.44	0.28
1375.81	0.24
1376.19	0.08
1376.56	0
1376.93	0.12
1377.31	0.12
1377.68	0.12
1378.05	0.12
1378.43	0.12
1378.8	0
1379.17	0
1379.55	0
1379.92	0
1380.29	0
1380.67	0
1381.04	0
1381.41	0
1381.79	0
1382.16	0
1382.53	0.04
1382.91	-0.88
1383.28	-0.88
1383.65	-0.88
1384.03	-0.88
1384.4	-0.92
1384.77	0
1385.14	0
1385.52	0
1385.89	0.36
1386.26	0.44
1386.64	0.44
1387.01	0.44
1387.38	0.44
1387.75	0.16
1388.13	0.08
1388.5	0.08
1388.87	0.08
1389.25	0.08
1389.62	-0.2
1389.99	-0.4
1390.36	-0.4
1390.74	-0.36
1391.11	-0.36
1391.48	-0.16
1391.85	0.04
1392.23	0.04
1392.6	0
1392.97	0
1393.34	0.12
1393.72	0.12
1394.09	0.12
1394.46	0.12
1394.83	0.12
1395.21	0
1395.58	0
1395.95	0
1396.32	0
1396.69	0
1397.07	0.04
1397.44	0.04
1397.81	0.04
1398.18	0.04
1398.55	0.04
1398.93	0.2
1399.3	0.2
1399.67	0.2
1400.04	0.2
1400.41	0.28
1400.79	0.08
1401.16	0.08
1401.53	0.08
1401.9	0.08
1402.27	0
1402.65	0.12
1403.02	0.12
1403.39	0.16
1403.76	-0.24
1404.13	-0.24
1404.51	-0.36
1404.88	-0.36
1405.25	-0.28
1405.62	0.12
1405.99	0.12
1406.36	0.12
1406.74	0.12
1407.11	0
1407.48	0
1407.85	-1.2
1408.22	-1.2
1408.59	-1.2
1408.96	-1.2
1409.34	-1.2
1409.71	0.04
1410.08	0.16
1410.45	0.2
1410.82	0.36
1411.19	0.36
1411.56	0.32
1411.93	0.2
1412.31	0.16
1412.68	0
1413.05	0
1413.42	0
1413.79	0
1414.16	-0.2
1414.53	-0.2
1414.9	-0.32
1415.27	-0.32
1415.65	-0.32
1416.02	0.16
1416.39	0.2
1416.76	0.36
1417.13	0.44
1417.5	0.48
1417.87	0.2
1418.24	0.16
1418.61	0.12
1418.98	0.04
1419.35	0
1419.73	0
1420.1	0
1420.47	0
1420.84	0
1421.21	0
1421.58	0
1421.95	0.04
1422.32	0.28
1422.69	0.28
1423.06	0.28
1423.43	0.32
1423.8	0.28
1424.17	0.04
1424.54	0.04
1424.91	0.16
1425.28	0.12
1425.65	0.24
1426.02	0.24
1426.39	0.28
1426.76	-0.44
1427.14	-0.24
1427.51	-0.36
1427.88	-0.2
1428.25	-0.24
1428.62	0.36
1428.99	0.16
1429.36	0.16
1429.73	0
1430.1	0
1430.47	0
1430.84	0
1431.21	0
1431.58	0.08
1431.95	0.08
1432.32	-0.12
1432.69	-0.12
1433.06	-0.12
1433.43	-0.2
1433.8	-0.2
1434.17	0
1434.54	0
1434.91	0
1435.28	0.12
1435.64	0.12
1436.01	-0.48
1436.38	-0.48
1436.75	-0.48
1437.12	-0.52
1437.49	-0.48
1437.86	0.12
1438.23	0.12
1438.6	0.12
1438.97	0.04
1439.34	0
1439.71	0
1440.08	0.16
1440.45	0.24
1440.82	-0.36
1441.19	-0.36
1441.56	-0.36
1441.93	-0.52
1442.3	-0.6
1442.67	-1.6
1443.03	-1.44
1443.4	-1.44
1443.77	-1.36
1444.14	-1.36
1444.51	0.24
1444.88	0.08
1445.25	0.08
1445.62	0
1445.99	0
1446.36	0
1446.73	0.04
1447.09	0.04
1447.46	0.04
1447.83	0.04
1448.2	0.04
1448.57	-0.2
1448.94	-0.2
1449.31	-0.2
1449.68	-0.2
1450.05	-0.2
1450.41	0
1450.78	-0.36
1451.15	-0.36
1451.52	-0.36
1451.89	-0.36
1452.26	-0.36
1452.63	0
1453	0
1453.36	0
1453.73	0
1454.1	0
1454.47	0.08
1454.84	0.08
1455.21	0.08
1455.57	-0.32
1455.94	-0.32
1456.31	-0.36
1456.68	-0.28
1457.05	-0.28
1457.42	0.12
1457.78	0.12
1458.15	0.08
1458.52	0.04
1458.89	0.04
1459.26	0.08
1459.63	0.2
1459.99	0.2
1460.36	0.16
1460.73	0.16
1461.1	0.12
1461.47	0
1461.83	0
1462.2	0
1462.57	0
1462.94	0
1463.31	0
1463.67	0.04
1464.04	-0.12
1464.41	-0.12
1464.78	-0.72
1465.15	-0.72
1465.51	-0.76
1465.88	-0.6
1466.25	-0.6
1466.62	0
1466.98	0
1467.35	0
1467.72	0
1468.09	0
1468.46	0
1468.82	0
1469.19	0
1469.56	0.12
1469.93	0.12
1470.29	0.12
1470.66	0.28
1471.03	0.28
1471.4	0.16
1471.76	0.16
1472.13	0.4
1472.5	0.24
1472.86	0.24
1473.23	0.24
1473.6	0.24
1473.97	0
1474.33	0
1474.7	0
1475.07	0
1475.44	0
1475.8	-0.16
1476.17	-0.16
1476.54	-0.16
1476.9	-0.16
1477.27	-0.16
1477.64	0
1478	0
1478.37	0.04
1478.74	0.04
1479.11	0.04
1479.47	0.04
1479.84	0.08
1480.21	0.04
1480.57	0.04
1480.94	0.04
1481.31	0.04
1481.67	0
1482.04	0
1482.41	0
1482.77	0
1483.14	0
1483.51	0
1483.87	0
1484.24	0
1484.61	0
1484.97	0
1485.34	0
1485.71	-0.96
1486.07	-0.96
1486.44	-0.96
1486.81	-0.96
1487.17	-0.96
1487.54	0
1487.9	0.08
1488.27	0.08
1488.64	-0.12
1489	-0.12
1489.37	-0.12
1489.74	-0.2
1490.1	-0.2
1490.47	0.04
1490.83	0.04
1491.2	0.04
1491.57	0.04
1491.93	0.04
1492.3	0
1492.66	0.16
1493.03	0.16
1493.4	0.4
1493.76	0.4
1494.13	0.52
1494.49	0.36
1494.86	0.36
1495.23	0.12
1495.59	0.12
1495.96	-1.4
1496.32	-1.4
1496.69	-1.4
1497.06	-1.4
1497.42	-2.16
1497.79	-0.76
1498.15	-0.76
1498.52	-0.76
1498.88	-0.76
1499.25	0
1499.62	-0.32
1499.98	-0.28
1500.35	-0.28
1500.71	-0.28
1501.08	-0.28
1501.44	0.04
1501.81	0
1502.17	0
1502.54	0
1502.9	0
1503.27	0
1503.64	0
1504	0
1504.37	0
1504.73	0
1505.1	0
1505.46	0
1505.83	0.12
1506.19	0.12
1506.56	0.12
1506.92	0.12
1507.29	0.2
1507.65	0.08
1508.02	0.08
1508.38	0.12
1508.75	0.12
1509.11	0.04
1509.48	0.04
1509.84	0.08
1510.21	0.24
1510.57	0.24
1510.94	0.24
1511.3	0.56
1511.67	0.52
1512.03	0.32
1512.4	0.32
1512.76	0.32
1513.13	-1
1513.49	-1.2
1513.85	-1.2
1514.22	-1.08
1514.58	-1.08
1514.95	-0.08
1515.31	0.12
1515.68	0.12
1516.04	0
1516.41	0
1516.77	0
1517.14	0
1517.5	0
1517.86	0
1518.23	0
1518.59	0
1518.96	0
1519.32	0
1519.69	0
1520.05	0
1520.41	0
1520.78	0.24
1521.14	0.44
1521.51	0.44
1521.87	0.44
1522.24	0.44
1522.6	0.2
1522.96	0
1523.33	0
1523.69	0
1524.06	0
1524.42	0
1524.78	0
1525.15	0
1525.51	0
1525.88	0
1526.24	0.04
1526.6	0.04
1526.97	0.04
1527.33	0.16
1527.69	0.16
1528.06	0.12
1528.42	0.12
1528.79	0.12
1529.15	-0.8
1529.51	-0.8
1529.88	-0.8
1530.24	-0.8
1530.6	-0.8
1530.97	0
1531.33	0
1531.69	0
1532.06	0
1532.42	0
1532.78	0
1533.15	0
1533.51	0
1533.87	0
1534.24	0
1534.6	0.04
1534.96	0.04
1535.33	0.04
1535.69	0.04
1536.05	0.04
1536.42	0
1536.78	0
1537.14	0
1537.51	0
1537.87	0
1538.23	0
1538.6	0
1538.96	0.04
1539.32	0.04
1539.68	0.04
1540.05	0.04
1540.41	0.04
1540.77	0.12
1541.14	0.12
1541.5	0.16
1541.86	0.16
1542.23	0.16
1542.59	0.04
1542.95	0.04
1543.31	0
1543.68	0.16
1544.04	0.16
1544.4	0.16
1544.76	0.24
1545.13	0.4
1545.49	0.4
1545.85	0.48
1546.21	0.48
1546.58	0.4
1546.94	0.24
1547.3	0.08
1547.66	0
1548.03	0.04
1548.39	0.08
1548.75	0.08
1549.11	0.08
1549.48	0.08
1549.84	0.04
1550.2	0
1550.56	0
1550.93	0
1551.29	0.04
1551.65	0.12
1552.01	0.12
1552.37	0.12
1552.74	0.12
1553.1	0.08
1553.46	0.08
1553.82	0.28
1554.18	0.28
1554.55	0.32
1554.91	0.32
1555.27	0.24
1555.63	0.04
1555.99	0.2
1556.36	0.16
1556.72	-1.36
1557.08	-1.24
1557.44	-1.24
1557.8	-1.4
1558.17	-1.4
1558.53	0.12
1558.89	0.08
1559.25	0.16
1559.61	0.16
1559.97	0.24
1560.34	0.32
1560.7	0.24
1561.06	0.4
1561.42	0.4
1561.78	0.48
1562.14	0
1562.5	0
1562.87	-0.24
1563.23	-0.24
1563.59	-0.8
1563.95	-0.4
1564.31	-0.32
1564.67	-0.32
1565.03	-0.32
1565.4	0.08
1565.76	0.08
1566.12	0.28
1566.48	0.32
1566.84	0.32
1567.2	0.32
1567.56	0.2
1567.92	0.12
1568.29	0.08
1568.65	0.08
1569.01	0.16
1569.37	-0.12
1569.73	-0.32
1570.09	-0.32
1570.45	-0.32
1570.81	-0.4
1571.17	0.2
1571.53	0.2
1571.89	0.24
1572.26	0.24
1572.62	0.24
1572.98	0.04
1573.34	0.04
1573.7	0
1574.06	0
1574.42	0.04
1574.78	-0.16
1575.14	-0.08
1575.5	0.08
1575.86	-0.72
1576.22	-0.76
1576.58	-0.48
1576.94	-0.56
1577.3	-0.68
1577.67	0.16
1578.03	0.16
1578.39	0.08
1578.75	0.16
1579.11	0.12
1579.47	0.12
1579.83	0.16
1580.19	0.16
1580.55	0.12
1580.91	0.12
1581.27	0.24
1581.63	0.32
1581.99	0.44
1582.35	0.4
1582.71	0.4
1583.07	0.24
1583.43	0.4
1583.79	0.28
1584.15	0.44
1584.51	0.44
1584.87	0.44
1585.23	0.16
1585.59	0.16
1585.95	0
1586.31	0.12
1586.67	0.44
1587.03	0.56
1587.39	0.56
1587.75	0.56
1588.11	0.44
1588.47	0.12
1588.83	0.12
1589.19	0.24
1589.55	0.24
1589.91	0.24
1590.27	0.44
1590.63	0.32
1590.99	0.2
1591.35	0.2
1591.71	0.64
1592.07	0.44
1592.42	0.44
1592.78	0.44
1593.14	0.56
1593.5	0.12
1593.86	0.2
1594.22	0.2
1594.58	0.2
1594.94	0.16
1595.3	0.16
1595.66	0.2
1596.02	0.2
1596.38	0.28
1596.74	0.2
1597.1	0.2
1597.46	0.08
1597.81	0.08
1598.17	0.08
1598.53	0.08
1598.89	0.08
1599.25	0.08
1599.61	0.08
1599.97	0
1600.33	0
1600.69	0
1601.05	0.16
1601.4	0.16
1601.76	-0.24
1602.12	-0.24
1602.48	-0.24
1602.84	-0.4
1603.2	-0.36
1603.56	0.04
1603.92	0.08
1604.28	0.08
1604.63	0.08
1604.99	0.24
1605.35	0.24
1605.71	0.2
1606.07	0.44
1606.43	0.44
1606.79	0.36
1607.14	0.4
1607.5	0.56
1607.86	0.48
1608.22	0.8
1608.58	0.68
1608.94	0.64
1609.29	0.48
1609.65	0.36
1610.01	0.08
1610.37	0.08
1610.73	0.08
1611.09	0.08
1611.44	0.04
1611.8	0
1612.16	0.16
1612.52	0.2
1612.88	0.2
1613.24	0.36
1613.59	0.36
1613.95	0.2
1614.31	0.16
1614.67	0.16
1615.03	0
1615.38	0.16
1615.74	0.2
1616.1	0.24
1616.46	0.24
1616.82	0.24
1617.17	0.08
1617.53	0.04
1617.89	0.2
1618.25	0.2
1618.6	0.2
1618.96	0.28
1619.32	0.4
1619.68	0.2
1620.04	0.32
1620.39	0.2
1620.75	0.2
1621.11	0.08
1621.47	0.08
1621.82	-0.04
1622.18	0.08
1622.54	0
1622.9	0
1623.25	-0.96
1623.61	-0.96
1623.97	-0.96
1624.33	-0.96
1624.68	-1
1625.04	0.2
1625.4	0.2
1625.75	-0.4
1626.11	-0.4
1626.47	-0.36
1626.83	-0.6
1627.18	-0.6
1627.54	0
1627.9	0
1628.26	0
1628.61	0
1628.97	0.2
1629.33	0.2
1629.68	0.2
1630.04	0.2
1630.4	-0.28
1630.75	-0.48
1631.11	-0.48
1631.47	-0.64
1631.83	-0.64
1632.18	0.04
1632.54	0.04
1632.9	0.04
1633.25	0.2
1633.61	0.2
1633.97	0
1634.32	0
1634.68	0.12
1635.04	0.12
1635.39	0.12
1635.75	0.12
1636.11	0.44
1636.46	0.32
1636.82	0.32
1637.18	0.32
1637.53	0.32
1637.89	0
1638.25	0
1638.6	0
1638.96	0
1639.31	0
1639.67	0
1640.03	0
1640.38	0.08
1640.74	0.08
1641.1	0.08
1641.45	0.12
1641.81	0.12
1642.16	0.08
1642.52	0.28
1642.88	0.28
1643.23	-0.36
1643.59	-0.28
1643.95	-0.32
1644.3	-0.4
1644.66	-0.4
1645.01	0.2
1645.37	0.28
1645.73	0.28
1646.08	0.16
1646.44	0.2
1646.79	-0.4
1647.15	-0.56
1647.51	-0.4
1647.86	-0.4
1648.22	-0.4
1648.57	-0.32
1648.93	-0.32
1649.28	-0.48
1649.64	-0.4
1650	-0.44
1650.35	0.16
1650.71	0.16
1651.06	0.16
1651.42	0.08
1651.77	-0.08
1652.13	-0.16
1652.48	-0.16
1652.84	-0.16
1653.2	-0.16
1653.55	0
1653.91	0.04
1654.26	0.12
1654.62	0.12
1654.97	0.12
1655.33	0.48
1655.68	0.44
1656.04	0.36
1656.39	0.36
1656.75	0.36
1657.1	0
1657.46	0
1657.81	0
1658.17	0.04
1658.52	0.04
1658.88	0.04
1659.23	0.04
1659.59	0.04
1659.94	0
1660.3	0
1660.65	0
1661.01	0
1661.36	0.04
1661.72	0.04
1662.07	0.04
1662.43	0.04
1662.78	0.04
1663.14	0.04
1663.49	0.08
1663.85	0.08
1664.2	0.12
1664.56	0.24
1664.91	-1.52
1665.27	-1.44
1665.62	-0.68
1665.98	-0.72
1666.33	-0.84
1666.69	1.24
1667.04	1.24
1667.39	0.48
1667.75	0.64
1668.1	0.68
1668.46	0.6
1668.81	0.72
1669.17	0.72
1669.52	0.56
1669.88	0.52
1670.23	0.28
1670.58	0.28
1670.94	0.28
1671.29	0.52
1671.65	0.52
1672	0.52
1672.36	0.56
1672.71	0.8
1673.06	0.92
1673.42	1
1673.77	1
1674.13	0.88
1674.48	0.64
1674.83	0.36
1675.19	0.52
1675.54	0.72
1675.9	0.8
1676.25	0.88
1676.6	1
1676.96	1.2
1677.31	1.4
1677.67	1.28
1678.02	1.56
1678.37	1.56
1678.73	1.24
1679.08	1.52
1679.43	1.52
1679.79	1.4
1680.14	1.32
1680.5	0.68
1680.85	0.24
1681.2	0.48
1681.56	0.24
1681.91	0.44
1682.26	1.12
1682.62	0.92
1682.97	0.8
1683.32	0.8
1683.68	1.12
1684.03	1.08
1684.38	1.08
1684.74	0.96
1685.09	1.36
1685.44	0.76
1685.8	1.16
1686.15	1.92
1686.5	2.28
1686.86	2.12
1687.21	2.44
1687.56	2.4
1687.92	1.72
1688.27	1.36
1688.62	2.08
1688.98	2.48
1689.33	2.48
1689.68	2.56
1690.03	2.44
1690.39	2.24
1690.74	2.08
1691.09	1.8
1691.45	1.96
1691.8	2.12
1692.15	1.64
1692.5	1.4
1692.86	1.6
1693.21	1.24
1693.56	1.8
1693.92	2.04
1694.27	1.12
1694.62	0.72
1694.97	1
1695.33	0.6
1695.68	0.28
1696.03	1.12
1696.38	1.48
1696.74	1.4
1697.09	0.88
1697.44	1.24
1697.79	1.44
1698.15	1.36
1698.5	1.52
1698.85	2.2
1699.2	0.84
1699.56	1.08
1699.91	1.32
1700.26	0.92
1700.61	1.36
1700.97	2.28
1701.32	1.72
1701.67	1.48
1702.02	1.92
1702.37	1.6
1702.73	2.12
1703.08	2.44
1703.43	2.48
1703.78	2.4
1704.13	2.04
1704.49	1.64
1704.84	1.4
1705.19	1.16
1705.54	1.16
1705.89	1.2
1706.25	1.76
1706.6	1.68
1706.95	1.8
1707.3	1.56
1707.65	1.76
1708.01	1.16
1708.36	1.32
1708.71	1.56
1709.06	2
1709.41	2.08
1709.76	2.08
1710.12	2.4
1710.47	2.64
1710.82	2.24
1711.17	2.08
1711.52	2.36
1711.87	2.12
1712.23	2.4
1712.58	2.44
1712.93	2.28
1713.28	2.12
1713.63	2.24
1713.98	1.8
1714.33	1.72
1714.69	2.04
1715.04	2.16
1715.39	1.76
1715.74	1.4
1716.09	1.6
1716.44	1.28
1716.79	1.36
1717.14	1.76
1717.5	2.4
1717.85	3.08
1718.2	3.04
1718.55	3.04
1718.9	2.8
1719.25	2.64
1719.6	2.16
1719.95	3.28
1720.3	3.12
1720.65	4.12
1721.01	4.16
1721.36	3.84
1721.71	3.08
1722.06	2.16
1722.41	1.84
1722.76	1.16
1723.11	1.36
1723.46	1.48
1723.81	2.16
1724.16	2.04
1724.51	2.32
1724.86	2.04
1725.21	1.92
1725.56	2.48
1725.92	2.16
1726.27	2.72
1726.62	2.84
1726.97	3.16
1727.32	2.48
1727.67	2.6
1728.02	2.6
1728.37	3.08
1728.72	2.36
1729.07	3.28
1729.42	2.68
1729.77	2.6
1730.12	2.64
1730.47	2.48
1730.82	2.04
1731.17	2.64
1731.52	3.48
1731.87	3.2
1732.22	3.48
1732.57	4
1732.92	3.96
1733.27	3.56
1733.62	3.48
1733.97	3.2
1734.32	2.92
1734.67	2.48
1735.02	1.76
1735.37	1.84
1735.72	2.04
1736.07	1.48
1736.42	1.68
1736.77	1.48
1737.12	1.08
1737.47	1.32
1737.82	1.52
1738.17	1.36
1738.52	2.04
1738.87	2.36
1739.22	2.24
1739.57	1.88
1739.92	1.76
1740.27	0.84
1740.62	0.96
1740.97	0.72
1741.32	0.96
1741.67	1.16
1742.02	1.72
1742.37	1.44
1742.72	1.8
1743.06	1.76
1743.41	1.56
1743.76	1.64
1744.11	0.52
1744.46	0.28
1744.81	0.08
1745.16	0.24
1745.51	0.24
1745.86	1.6
1746.21	1.64
1746.56	1.64
1746.91	1.64
1747.26	0.96
1747.6	0.48
1747.95	0.4
1748.3	0.4
1748.65	0.2
1749	0.24
1749.35	0.24
1749.7	0.32
1750.05	0.68
1750.4	1.28
1750.75	1.28
1751.09	1.28
1751.44	1.24
1751.79	0.28
1752.14	-0.36
1752.49	-0.4
1752.84	-0.4
1753.19	-0.28
1753.54	0.48
1753.88	0.6
1754.23	0.68
1754.58	0.76
1754.93	0.8
1755.28	0.76
1755.63	0.64
1755.98	1.52
1756.32	1.44
1756.67	1.08
1757.02	1.44
1757.37	1.68
1757.72	1.72
1758.07	1.76
1758.42	1.92
1758.76	2.16
1759.11	1.84
1759.46	0.88
1759.81	1.6
1760.16	1.8
1760.5	1.4
1760.85	1.28
1761.2	1.4
1761.55	2.88
1761.9	2.8
1762.25	2.8
1762.59	5.12
1762.94	5.2
1763.29	3.04
1763.64	3.96
1763.99	3.84
1764.33	3.52
1764.68	3.48
1765.03	4
1765.38	6.24
1765.73	7.32
1766.07	6.12
1766.42	9.2
1766.77	9.28
1767.12	7.76
1767.46	7.36
1767.81	8
1768.16	7.8
1768.51	8.6
1768.85	8.48
1769.2	12.88
1769.55	15.24
1769.9	14.08
1770.25	16.72
1770.59	19.64
1770.94	17.52
1771.29	16.92
1771.64	18.8
1771.98	20.36
1772.33	20.4
1772.68	23.2
1773.02	24.28
1773.37	26.92
1773.72	26.04
1774.07	26.96
1774.41	30.08
1774.76	31.36
1775.11	32.04
1775.46	35.56
1775.8	33.52
1776.15	31.96
1776.5	35
1776.84	33.64
1777.19	36.08
1777.54	43.52
1777.89	45.84
1778.23	45.48
1778.58	51.16
1778.93	52.2
1779.27	50.56
1779.62	52.04
1779.97	53.4
1780.31	52.04
1780.66	50.64
1781.01	53
1781.35	57.76
1781.7	62.64
1782.05	64.96
1782.39	67.8
1782.74	66.96
1783.09	63.36
1783.43	64.48
1783.78	67.16
1784.13	70.28
1784.47	72.4
1784.82	72
1785.17	70.64
1785.51	69.64
1785.86	71.64
1786.21	78.32
1786.55	84.88
1786.9	94.72
1787.25	99.44
1787.59	97.8
1787.94	96.16
1788.29	94.8
1788.63	89.8
1788.98	91.72
1789.32	93.64
1789.67	90.4
1790.02	87.6
1790.36	91.72
1790.71	97.2
1791.06	105.12
1791.4	116.2
1791.75	129.24
1792.09	144.2
1792.44	151.08
1792.79	151.64
1793.13	161.92
1793.48	163.8
1793.82	154.24
1794.17	149.24
1794.52	145.44
1794.86	135.88
1795.21	133.28
1795.55	116.6
1795.9	99.64
1796.24	112.6
1796.59	129.8
1796.94	147.64
1797.28	174.04
1797.63	194.12
1797.97	189.92
1798.32	173.84
1798.66	167.88
1799.01	173.04
1799.36	168
1799.7	167.36
1800.05	177.68
1800.39	166.04
1800.74	164.16
1801.08	195.32
1801.43	214.52
1801.77	217.72
1802.12	222.92
1802.46	227.44
1802.81	212.08
1803.15	194.68
1803.5	186.92
1803.85	179.24
1804.19	157.28
1804.54	150.92
1804.88	150.16
1805.23	147.88
1805.57	165.88
1805.92	198.8
1806.26	210.84
1806.61	213.32
1806.95	224.56
1807.3	245.96
1807.64	250.52
1807.99	253.6
1808.33	258.92
1808.68	245.04
1809.02	237.04
1809.37	251.6
1809.71	258.12
1810.06	269.16
1810.4	276.28
1810.75	254.68
1811.09	238.72
1811.43	260.8
1811.78	288.52
1812.12	333.64
1812.47	359.36
1812.81	357.96
1813.16	341.48
1813.5	315.6
1813.85	286.36
1814.19	277.12
1814.54	259.16
1814.88	237.68
1815.23	222.52
1815.57	190.72
1815.91	155.4
1816.26	153.92
1816.6	180.68
1816.95	199.12
1817.29	227
1817.64	271.28
1817.98	312.72
1818.32	328.56
1818.67	336.76
1819.01	355.28
1819.36	355.84
1819.7	319.68
1820.05	294.28
1820.39	295.36
1820.73	277.8
1821.08	273.24
1821.42	277.16
1821.77	254.04
1822.11	220.88
1822.45	210.76
1822.8	192.96
1823.14	169.72
1823.49	193.72
1823.83	242.08
1824.17	275.88
1824.52	305.36
1824.86	334.12
1825.2	326.28
1825.55	288.2
1825.89	244.12
1826.24	232.64
1826.58	261.12
1826.92	268.2
1827.27	278.92
1827.61	310.6
1827.95	298.92
1828.3	259.36
1828.64	237.68
1828.98	206.64
1829.33	189.96
1829.67	232.04
1830.02	248.2
1830.36	267.96
1830.7	323.36
1831.05	337.84
1831.39	306.28
1831.73	300
1832.08	286.08
1832.42	252.64
1832.76	241.16
1833.1	223.16
1833.45	204.28
1833.79	197.4
1834.13	188.16
1834.48	181.16
1834.82	189.12
1835.16	189.24
1835.51	187.4
1835.85	185.72
1836.19	171.36
1836.54	147.72
1836.88	136.52
1837.22	113.92
1837.56	101.4
1837.91	111.2
1838.25	133.2
1838.59	152.92
1838.94	173.92
1839.28	176.16
1839.62	168.76
1839.96	158.52
1840.31	134.04
1840.65	113.12
1840.99	130.88
1841.34	166.12
1841.68	180.96
1842.02	205.6
1842.36	226.76
1842.71	202.36
1843.05	161.92
1843.39	163.48
1843.73	172.32
1844.08	193.2
1844.42	230.6
1844.76	249.68
1845.1	230.16
1845.45	208.08
1845.79	189.16
1846.13	171.12
1846.47	159.64
1846.81	147.88
1847.16	148.84
1847.5	160.52
1847.84	169.32
1848.18	176.72
1848.53	193.52
1848.87	191.6
1849.21	172.16
1849.55	154.36
1849.89	140.52
1850.24	129.68
1850.58	124.12
1850.92	115.32
1851.26	112.52
1851.6	114.44
1851.95	107.32
1852.29	101.56
1852.63	102.28
1852.97	91.04
1853.31	78.96
1853.66	73.52
1854	62.76
1854.34	68.72
1854.68	86.72
1855.02	90.76
1855.36	94
1855.71	102.92
1856.05	88.84
1856.39	69.2
1856.73	61.36
1857.07	54.68
1857.41	51.88
1857.76	51.28
1858.1	45.56
1858.44	42.24
1858.78	44.16
1859.12	35.36
1859.46	29.32
1859.8	28
1860.15	26.56
1860.49	37.64
1860.83	51.68
1861.17	54.64
1861.51	55.76
1861.85	56.52
1862.19	39.44
1862.53	29.72
1862.88	32.44
1863.22	30.96
1863.56	28.64
1863.9	29.32
1864.24	27.76
1864.58	21.92
1864.92	20.6
1865.26	19.28
1865.6	15.52
1865.94	10.96
1866.29	7.72
1866.63	5.88
1866.97	5.12
1867.31	5.32
1867.65	5.36
1867.99	6.68
1868.33	6.72
1868.67	7
1869.01	8.96
1869.35	16.2
1869.69	26.92
1870.03	31.92
1870.37	38.2
1870.72	39.6
1871.06	31.96
1871.4	20.04
1871.74	15.2
1872.08	11.04
1872.42	16.6
1872.76	24.6
1873.1	26.64
1873.44	26.12
1873.78	23.56
1874.12	14.84
1874.46	11.04
1874.8	17.12
1875.14	23.72
1875.48	26
1875.82	28.64
1876.16	28.92
1876.5	24.68
1876.84	20.92
1877.18	19.52
1877.52	15.72
1877.86	11.68
1878.2	7.84
1878.54	4.8
1878.88	3.72
1879.22	5.28
1879.56	6.28
1879.9	7.16
1880.24	8.36
1880.58	10.92
1880.92	13.84
1881.26	14.04
1881.6	14.84
1881.94	15.44
1882.28	16.8
1882.62	20.64
1882.96	25.28
1883.3	26.52
1883.64	26.64
1883.98	25.32
1884.32	19.28
1884.66	14.4
1885	13.84
1885.34	15.52
1885.68	16.04
1886.02	19
1886.36	18.52
1886.7	18.44
1887.04	17.96
1887.38	19.4
1887.72	19.16
1888.06	21.72
1888.39	24.56
1888.73	27.72
1889.07	36.8
1889.41	40.36
1889.75	41.88
1890.09	46.8
1890.43	48.48
1890.77	37.16
1891.11	32.2
1891.45	29.68
1891.79	23.24
1892.13	19.52
1892.47	23.44
1892.8	26.36
1893.14	29.04
1893.48	33.64
1893.82	38.56
1894.16	38.44
1894.5	38.2
1894.84	39.48
1895.18	37.36
1895.52	36.56
1895.86	38.36
1896.19	40.24
1896.53	39.76
1896.87	43.48
1897.21	42.08
1897.55	43.4
1897.89	46.84
1898.23	52.52
1898.57	50.16
1898.9	51.8
1899.24	51.68
1899.58	49.44
1899.92	47.4
1900.26	50.12
1900.6	52.16
1900.94	51.56
1901.27	53.4
1901.61	53.16
1901.95	53.12
1902.29	53.8
1902.63	57.32
1902.97	58
1903.3	60.56
1903.64	62.04
1903.98	62.28
1904.32	62.92
1904.66	63.84
1905	63
1905.33	63.32
1905.67	66.44
1906.01	67.4
1906.35	68.44
1906.69	68.76
1907.02	70.52
1907.36	68.76
1907.7	69.4
1908.04	68.68
1908.38	70.24
1908.71	69.8
1909.05	71.64
1909.39	70.76
1909.73	71.2
1910.07	70.64
1910.4	71.4
1910.74	70.88
1911.08	71.6
1911.42	72.76
1911.76	74.32
1912.09	74.52
1912.43	76.08
1912.77	77.8
1913.11	79.12
1913.44	79.28
1913.78	81.24
1914.12	81.4
1914.46	82.24
1914.79	84.04
1915.13	85.76
1915.47	83.32
1915.81	83.32
1916.14	83.84
1916.48	82.08
1916.82	81.16
1917.16	84.8
1917.49	85.64
1917.83	84.56
1918.17	86.6
1918.5	87.96
1918.84	87.24
1919.18	87.6
1919.52	89.4
1919.85	87.52
1920.19	87.72
1920.53	88.68
1920.87	88.48
1921.2	88.52
1921.54	91.52
1921.88	92.12
1922.21	90.56
1922.55	94.04
1922.89	95.04
1923.22	94.04
1923.56	93.8
1923.9	95.6
1924.23	93.2
1924.57	91.72
1924.91	93.52
1925.25	94.64
1925.58	93.84
1925.92	94.48
1926.26	95.76
1926.59	93.28
1926.93	94.8
1927.27	96.36
1927.6	95.92
1927.94	94.76
1928.28	97.76
1928.61	95.68
1928.95	96.2
1929.29	98.12
1929.62	99.08
1929.96	97.16
1930.29	98.4
1930.63	97.36
1930.97	96.72
1931.3	99.2
1931.64	100.12
1931.98	100.08
1932.31	98.8
1932.65	98.88
1932.99	95.84
1933.32	96.48
1933.66	97.04
1933.99	99.16
1934.33	99.08
1934.67	101.8
1935	102.76
1935.34	102.16
1935.67	104.88
1936.01	105.8
1936.35	105.28
1936.68	106.08
1937.02	107.16
1937.35	104.36
1937.69	104.88
1938.03	105.24
1938.36	102.12
1938.7	104.32
1939.03	106
1939.37	105.72
1939.7	106.88
1940.04	108.92
1940.38	106.76
1940.71	107.04
1941.05	107.44
1941.38	106.24
1941.72	107.12
1942.05	108.16
1942.39	108.88
1942.73	109.32
1943.06	110.6
1943.4	110.16
1943.73	109.88
1944.07	110.12
1944.4	112.64
1944.74	112.68
1945.07	114.96
1945.41	116.52
1945.74	114.88
1946.08	113.28
1946.42	114.36
1946.75	114.04
1947.09	110.92
1947.42	115.2
1947.76	114.24
1948.09	112
1948.43	111.84
1948.76	113.48
1949.1	109.2
1949.43	109.68
1949.77	111.08
1950.1	110.08
1950.44	110.36
1950.77	112.16
1951.11	113.64
1951.44	112.32
1951.78	113.24
1952.11	115.16
1952.45	113.52
1952.78	112
1953.12	110.88
1953.45	109.48
1953.79	107.64
1954.12	109.56
1954.46	109.52
1954.79	109.28
1955.12	106.84
1955.46	105.92
1955.79	104.64
1956.13	103.16
1956.46	104.08
1956.8	106.36
1957.13	105.16
1957.47	105.2
1957.8	106.84
1958.14	107.48
1958.47	105.64
1958.8	106.68
1959.14	106.2
1959.47	104.24
1959.81	102.8
1960.14	104.72
1960.48	103.44
1960.81	101.32
1961.14	102.16
1961.48	102.88
1961.81	101.12
1962.15	100.64
1962.48	102.44
1962.82	100.52
1963.15	99.84
1963.48	98.84
1963.82	97.92
1964.15	95.68
1964.49	96.04
1964.82	95.04
1965.15	94.96
1965.49	93.76
1965.82	93.56
1966.16	92.2
1966.49	90.76
1966.82	89.36
1967.16	89.88
1967.49	88.6
1967.83	87.92
1968.16	86.48
1968.49	86.2
1968.83	84.6
1969.16	83.48
1969.49	81.48
1969.83	82.52
1970.16	81.84
1970.49	80.4
1970.83	79.16
1971.16	79.6
1971.5	76.76
1971.83	74.36
1972.16	73.84
1972.5	73.16
1972.83	72.68
1973.16	72.08
1973.5	72.92
1973.83	72.24
1974.16	71.6
1974.5	69.16
1974.83	69
1975.16	66.48
1975.5	64.36
1975.83	62.32
1976.16	61.76
1976.49	60.16
1976.83	59.44
1977.16	59.92
1977.49	59.68
1977.83	58.28
1978.16	58.36
1978.49	57.32
1978.83	54.8
1979.16	53
1979.49	51.52
1979.83	48.84
1980.16	46.28
1980.49	45.48
1980.82	44.76
1981.16	43
1981.49	42.68
1981.82	41.44
1982.15	39.64
1982.49	38.84
1982.82	38.44
1983.15	35.36
1983.49	36.36
1983.82	35.68
1984.15	35.04
1984.48	34.44
1984.82	33.44
1985.15	31.6
1985.48	31.44
1985.81	28.64
1986.15	26.56
1986.48	26.4
1986.81	25.72
1987.14	23.72
1987.48	25
1987.81	25.4
1988.14	24.56
1988.47	23.16
1988.81	22.52
1989.14	20.2
1989.47	18.32
1989.8	18.32
1990.13	17.64
1990.47	17.8
1990.8	17.8
1991.13	18.68
1991.46	16.76
1991.79	16.52
1992.13	13.84
1992.46	13
1992.79	10.12
1993.12	9.68
1993.45	8.08
1993.79	9.08
1994.12	8.08
1994.45	8.32
1994.78	9.36
1995.11	9.8
1995.45	10.64
1995.78	10.76
1996.11	10.72
1996.44	9.12
1996.77	8.12
1997.1	6.32
1997.44	5.36
1997.77	4.68
1998.1	4.04
1998.43	4.68
1998.76	4.4
1999.09	5.16
1999.43	3.8
1999.76	3.4
2000.09	2.16
2000.42	2.04
2000.75	-0.36
2001.08	0.88
2001.41	1.44
2001.75	2.2
2002.08	1.88
2002.41	3.16
2002.74	3.8
2003.07	3.52
2003.4	3
2003.73	3
2004.06	3.36
2004.4	2
2004.73	1.8
2005.06	2.4
2005.39	2.6
2005.72	2.04
2006.05	2.44
2006.38	3
2006.71	2.64
2007.04	3.96
2007.37	4.44
2007.71	5.28
2008.04	4.8
2008.37	4.92
2008.7	3.92
2009.03	4.12
2009.36	3.64
2009.69	3.96
2010.02	3.96
2010.35	3.84
2010.68	3.32
2011.01	3.24
2011.34	3.08
2011.67	2.76
2012.01	3.56
2012.34	4.36
2012.67	4.64
2013	5.2
2013.33	6.72
2013.66	6.16
2013.99	5.76
2014.32	6.84
2014.65	6.64
2014.98	5.52
2015.31	5.72
2015.64	5.72
2015.97	4.48
2016.3	5.16
2016.63	5.68
2016.96	6.68
2017.29	6.2
2017.62	6.96
2017.95	6.76
2018.28	7.6
2018.61	6.92
2018.94	8.12
2019.27	9.56
2019.6	9.44
2019.93	9.72
2020.26	9.32
2020.59	10.08
2020.92	9
2021.25	9.76
2021.58	8.56
2021.91	8.92
2022.24	7.16
2022.57	6.32
2022.9	6.04
2023.23	6.12
2023.56	5.48
2023.89	5.88
2024.22	6.52
2024.55	6.88
2024.88	7.08
2025.21	7.72
2025.54	7.56
2025.87	7.44
2026.2	6.96
2026.53	7.68
2026.86	8.2
2027.19	9.16
2027.52	9.48
2027.85	9.96
2028.18	9.32
2028.51	9.36
2028.84	8.56
2029.16	8
2029.49	8.36
2029.82	8.76
2030.15	7.8
2030.48	8.48
2030.81	8.16
2031.14	7.4
2031.47	7.24
2031.8	8.64
2032.13	8.92
2032.46	10.44
2032.79	10.88
2033.12	10.88
2033.44	10.16
2033.77	10.8
2034.1	9.72
2034.43	9.88
2034.76	9.92
2035.09	9.72
2035.42	8.36
2035.75	8.68
2036.08	7.56
2036.41	6.72
2036.73	6.76
2037.06	6.6
2037.39	5.56
2037.72	5.52
2038.05	5.4
2038.38	4.88
2038.71	4.92
2039.04	3.96
2039.36	4.08
2039.69	4.92
2040.02	5.64
2040.35	5.08
2040.68	6.72
2041.01	7.36
2041.34	6.88
2041.66	6.44
2041.99	6.28
2042.32	5.8
2042.65	5.36
2042.98	6.2
2043.31	6.72
2043.63	7.48
2043.96	7.92
2044.29	8.24
2044.62	7.2
2044.95	5.92
2045.28	5.48
2045.6	4.48
2045.93	4.2
2046.26	4.32
2046.59	5.08
2046.92	4.92
2047.24	5.48
2047.57	5.32
2047.9	5
2048.23	4.64
2048.56	4.32
2048.88	4.68
2049.21	4.2
2049.54	3.96
2049.87	3.52
2050.2	4.16
2050.52	3.92
2050.85	3.52
2051.18	2.96
2051.51	2.92
2051.83	2.64
2052.16	2.32
2052.49	2.64
2052.82	3.44
2053.15	4.2
2053.47	4.44
2053.8	4.2
2054.13	4.68
2054.46	4.76
2054.78	4.16
2055.11	3.64
2055.44	3.36
2055.77	2.44
2056.09	2.28
2056.42	2.36
2056.75	2.88
2057.08	2.76
2057.4	2.56
2057.73	2.04
2058.06	1.8
2058.38	1.36
2058.71	2
2059.04	2.4
2059.37	2.24
2059.69	2.2
2060.02	2.4
2060.35	1.88
2060.67	2
2061	1.88
2061.33	1.76
2061.66	1.24
2061.98	1.2
2062.31	1.04
2062.64	0.96
2062.96	0.72
2063.29	0.72
2063.62	0.76
2063.94	1.24
2064.27	1.84
2064.6	1
2064.92	1.92
2065.25	2.04
2065.58	1.48
2065.91	1.32
2066.23	2.4
2066.56	1.4
2066.89	1.36
2067.21	1.04
2067.54	0.68
2067.87	0.48
2068.19	0.64
2068.52	0.32
2068.84	0.36
2069.17	0.36
2069.5	0.76
2069.82	0.56
2070.15	0.88
2070.48	0.88
2070.8	1.24
2071.13	0.92
2071.46	1.04
2071.78	0.72
2072.11	0.84
2072.43	0.76
2072.76	0.6
2073.09	0.8
2073.41	0.8
2073.74	0.88
2074.07	0.76
2074.39	0.84
2074.72	0.76
2075.04	0.92
2075.37	0.8
2075.7	0.6
2076.02	0.72
2076.35	0.76
2076.67	0.6
2077	0.56
2077.33	0.52
2077.65	0.8
2077.98	0.6
2078.3	0.64
2078.63	0.56
2078.95	0.68
2079.28	0.36
2079.61	-0.28
2079.93	-0.32
2080.26	-0.32
2080.58	-0.36
2080.91	-0.52
2081.23	0.08
2081.56	0.08
2081.89	0.08
2082.21	0.08
2082.54	0.36
2082.86	0.36
2083.19	0.36
2083.51	0.72
2083.84	0.72
2084.16	0.44
2084.49	0.44
2084.81	0.72
2085.14	0.36
2085.46	0.64
2085.79	0.8
2086.12	0.8
2086.44	0.56
2086.77	0.56
2087.09	0.2
2087.42	0.16
2087.74	0.2
2088.07	0.16
2088.39	0.16
2088.72	0.16
2089.04	0.04
2089.37	0.08
2089.69	0.08
2090.02	0.08
2090.34	-0.32
2090.67	-0.32
2090.99	-2.48
2091.32	-2.48
2091.64	-2.08
2091.97	-1.64
2092.29	-1.44
2092.62	0.96
2092.94	0.96
2093.26	0.56
2093.59	0.6
2093.91	-0.68
2094.24	-0.72
2094.56	-0.72
2094.89	-0.64
2095.21	-0.64
2095.54	0.44
2095.86	0.24
2096.19	0.24
2096.51	0.36
2096.84	0.28
2097.16	0.48
2097.48	0.72
2097.81	0.72
2098.13	0.6
2098.46	0.2
2098.78	0.2
2099.11	0.4
2099.43	0.4
2099.75	0.32
2100.08	0.76
2100.4	0.56
2100.73	0.04
2101.05	0.04
2101.38	0.32
2101.7	0.6
2102.02	0.6
2102.35	0.72
2102.67	0.72
2103	0.44
2103.32	0.12
2103.64	0.12
2103.97	0.2
2104.29	0.2
2104.62	0.2
2104.94	0.36
2105.26	-0.2
2105.59	-0.4
2105.91	-0.32
2106.23	-0.04
2106.56	-0.2
2106.88	0.56
2107.21	0.64
2107.53	0.6
2107.85	0.4
2108.18	0.4
2108.5	0.44
2108.82	0.36
2109.15	0.44
2109.47	0.44
2109.79	0.48
2110.12	0.24
2110.44	0.36
2110.76	0.28
2111.09	0.4
2111.41	0.36
2111.73	0.36
2112.06	0.36
2112.38	0.32
2112.7	-0.44
2113.03	-0.08
2113.35	-0.08
2113.67	-0.2
2114	-0.08
2114.32	0.72
2114.64	0.36
2114.97	0.48
2115.29	0.52
2115.61	0.52
2115.94	0.28
2116.26	0.52
2116.58	0.4
2116.91	-0.64
2117.23	-0.56
2117.55	-0.24
2117.87	-0.16
2118.2	-0.16
2118.52	0.84
2118.84	0.64
2119.17	0.32
2119.49	0
2119.81	0
2120.13	0.08
2120.46	0.2
2120.78	-0.8
2121.1	-0.8
2121.42	-0.8
2121.75	-0.84
2122.07	-0.8
2122.39	0.24
2122.72	0.24
2123.04	0.44
2123.36	0.4
2123.68	0.24
2124.01	0.4
2124.33	0.6
2124.65	0.48
2124.97	0.48
2125.29	0.48
2125.62	0.28
2125.94	0.08
2126.26	0.04
2126.58	0.08
2126.91	-0.88
2127.23	-0.88
2127.55	-0.88
2127.87	-0.92
2128.2	-0.96
2128.52	0
2128.84	0.16
2129.16	0.16
2129.48	0.24
2129.81	0.24
2130.13	0.24
2130.45	0.2
2130.77	0.36
2131.09	0.48
2131.42	0.48
2131.74	0.48
2132.06	0.6
2132.38	0.44
2132.7	0.24
2133.02	0.24
2133.35	0.24
2133.67	0
2133.99	0.08
2134.31	-0.52
2134.63	-0.52
2134.96	-0.52
2135.28	-0.44
2135.6	-0.52
2135.92	0.12
2136.24	0.12
2136.56	0.52
2136.88	0.44
2137.21	0.44
2137.53	0.72
2137.85	0.72
2138.17	-0.28
2138.49	-0.28
2138.81	-0.12
2139.13	-0.44
2139.46	-0.44
2139.78	0.16
2140.1	0.16
2140.42	0
2140.74	0
2141.06	0
2141.38	0
2141.7	0.08
2142.03	0.08
2142.35	0.24
2142.67	0.24
2142.99	0.24
2143.31	0.16
2143.63	0.24
2143.95	0.08
2144.27	0.32
2144.59	0.36
2144.91	0.2
2145.24	0.2
2145.56	0.2
2145.88	-0.04
2146.2	-0.04
2146.52	0.12
2146.84	0.04
2147.16	0.24
2147.48	0.24
2147.8	0.2
2148.12	0.2
2148.44	0.2
2148.76	0
2149.08	0
2149.41	0.08
2149.73	0.36
2150.05	0.68
2150.37	0.68
2150.69	0.76
2151.01	0.68
2151.33	0.6
2151.65	0.28
2151.97	0.28
2152.29	0.28
2152.61	-0.04
2152.93	-0.24
2153.25	-0.24
2153.57	-0.2
2153.89	-0.28
2154.21	-0.36
2154.53	-0.36
2154.85	-0.36
2155.17	-0.16
2155.49	-0.36
2155.81	0.12
2156.13	0.12
2156.45	0.12
2156.77	-0.04
2157.09	0.28
2157.41	0.2
2157.73	0.2
2158.05	0.24
2158.37	0.2
2158.69	0.16
2159.01	0.16
2159.33	0.16
2159.65	0.12
2159.97	0.16
2160.29	0.08
2160.61	0.08
2160.93	0.24
2161.25	0.48
2161.57	0.4
2161.89	0.4
2162.21	0.64
2162.53	0.48
2162.85	-0.36
2163.17	-0.36
2163.49	-0.04
2163.81	-0.04
2164.13	-0.04
2164.45	-0.04
2164.77	0.12
2165.08	-0.2
2165.4	-0.44
2165.72	-0.44
2166.04	0.32
2166.36	0.16
2166.68	0.16
2167	0.16
2167.32	0.52
2167.64	0.4
2167.96	0.4
2168.28	0.4
2168.6	0.4
2168.92	0.04
2169.24	0
2169.55	0
2169.87	0
2170.19	0
2170.51	0
2170.83	0
2171.15	0.12
2171.47	0.12
2171.79	0.12
2172.11	0.12
2172.43	0.12
2172.74	0.08
2173.06	0.08
2173.38	0.08
2173.7	0.08
2174.02	0.08
2174.34	0
2174.66	0
2174.98	0
2175.29	0.08
2175.61	0.08
2175.93	0.08
2176.25	0.4
2176.57	0.4
2176.89	0.36
2177.21	0.36
2177.52	0.36
2177.84	0.16
2178.16	0.16
2178.48	0.12
2178.8	0.12
2179.12	0.12
2179.43	0.28
2179.75	-0.72
2180.07	-0.72
2180.39	-0.72
2180.71	-0.72
2181.03	-1
2181.34	0
2181.66	0.04
2181.98	0.04
2182.3	0.04
2182.62	0.04
2182.93	-0.36
2183.25	-0.4
2183.57	-0.4
2183.89	-0.4
2184.21	-0.4
2184.52	0
2184.84	0
2185.16	0
2185.48	0
2185.8	0
2186.11	0
2186.43	0
2186.75	0
2187.07	-0.4
2187.39	-1
2187.7	-1
2188.02	-1.6
2188.34	-1.6
2188.66	-1.2
2188.97	-0.6
2189.29	-0.6
2189.61	0
2189.93	0
2190.24	0
2190.56	0
2190.88	0
2191.2	0
2191.51	0
2191.83	0
2192.15	0
2192.47	0.08
2192.78	0.08
2193.1	0.08
2193.42	0.08
2193.74	0.08
2194.05	0
2194.37	0
2194.69	0
2195	-0.4
2195.32	-0.4
2195.64	-0.4
2195.96	-0.4
2196.27	-0.4
2196.59	-0.52
2196.91	-0.52
2197.22	-0.52
2197.54	-0.52
2197.86	-0.4
2198.18	0.12
2198.49	0.12
2198.81	0.12
2199.13	0.12
2199.44	0.04
2199.76	0.28
2200.08	0.28
2200.39	0.28
2200.71	0.68
2201.03	0.64
2201.34	0.4
2201.66	0.4
2201.98	0.4
2202.29	0
2202.61	0
2202.93	0
2203.24	0
2203.56	0.24
2203.88	0.32
2204.19	0.32
2204.51	0.56
2204.83	0.56
2205.14	0.32
2205.46	0.28
2205.78	0.28
2206.09	0.08
2206.41	-0.12
2206.72	-0.32
2207.04	-0.36
2207.36	-0.76
2207.67	-0.8
2207.99	-0.6
2208.31	-0.24
2208.62	-0.24
2208.94	0.16
2209.25	0.16
2209.57	0.16
2209.89	0
2210.2	0
2210.52	0
2210.83	0
2211.15	0
2211.47	0.04
2211.78	0.04
2212.1	-0.36
2212.41	-0.2
2212.73	-0.2
2213.05	-0.24
2213.36	-0.24
2213.68	0.16
2213.99	0
2214.31	0.24
2214.62	0.24
2214.94	0.24
2215.26	0.28
2215.57	0.28
2215.89	0.08
2216.2	0.08
2216.52	0.08
2216.83	0.08
2217.15	0.16
2217.46	0.12
2217.78	0.12
2218.1	-0.08
2218.41	-0.12
2218.73	-0.2
2219.04	-0.2
2219.36	-0.2
2219.67	0
2219.99	0
2220.3	0
2220.62	0.16
2220.93	0.16
2221.25	0.32
2221.56	0.32
2221.88	0.32
2222.19	0.2
2222.51	0.2
2222.82	-1.36
2223.14	-1.28
2223.45	-1.28
2223.77	-1.32
2224.08	-1.32
2224.4	0.16
2224.71	0.16
2225.03	0.2
2225.34	0.2
2225.66	-1.2
2225.97	-1.28
2226.29	-1.36
2226.6	-1.32
2226.92	-1.32
2227.23	0.08
2227.55	0.08
2227.86	0.08
2228.18	0
2228.49	0
2228.81	0
2229.12	0.12
2229.44	0.16
2229.75	0.16
2230.07	0.2
2230.38	0.36
2230.69	0.24
2231.01	0.2
2231.32	0.2
2231.64	0.16
2231.95	0
2232.27	0
2232.58	0
2232.9	0
2233.21	0
2233.52	0.16
2233.84	0.24
2234.15	0.24
2234.47	0.24
2234.78	0.24
2235.1	0.08
2235.41	0.08
2235.72	0.12
2236.04	0.12
2236.35	0.12
2236.67	-0.48
2236.98	-0.52
2237.29	-0.24
2237.61	-0.24
2237.92	-0.24
2238.24	0.36
2238.55	0.32
2238.86	0.04
2239.18	0.04
2239.49	-0.64
2239.8	-0.64
2240.12	-0.64
2240.43	-0.68
2240.75	-0.68
2241.06	0.04
2241.37	0.04
2241.69	0.16
2242	0.16
2242.31	0.16
2242.63	0.12
2242.94	0.4
2243.26	-0.32
2243.57	-0.2
2243.88	-0.2
2244.2	-0.2
2244.51	-0.48
2244.82	0.12
2245.14	0
2245.45	0.12
2245.76	0.12
2246.08	0.2
2246.39	0.2
2246.7	0.2
2247.02	0.08
2247.33	0.16
2247.64	0.08
2247.96	0.08
2248.27	0.16
2248.58	-0.68
2248.9	-0.76
2249.21	-0.76
2249.52	-0.76
2249.83	-0.84
2250.15	0
2250.46	0
2250.77	0.08
2251.09	0.12
2251.4	0.12
2251.71	0.12
2252.03	0.36
2252.34	0.28
2252.65	0.24
2252.96	0.32
2253.28	0.32
2253.59	0.08
2253.9	0.08
2254.21	0.08
2254.53	0
2254.84	-0.4
2255.15	-0.32
2255.47	-0.32
2255.78	-0.28
2256.09	-0.28
2256.4	0.16
2256.72	0.08
2257.03	0.08
2257.34	0.04
2257.65	0.04
2257.97	0
2258.28	0
2258.59	0
2258.9	0
2259.22	0
2259.53	0
2259.84	0.28
2260.15	0.28
2260.46	0.48
2260.78	0.48
2261.09	0.48
2261.4	0.2
2261.71	0.2
2262.03	0
2262.34	0
2262.65	0
2262.96	0
2263.27	0
2263.59	0
2263.9	0
2264.21	0
2264.52	0
2264.83	0
2265.15	0
2265.46	0.04
2265.77	0.04
2266.08	0.04
2266.39	0.08
2266.7	0.08
2267.02	0.04
2267.33	-0.36
2267.64	-0.36
2267.95	-0.4
2268.26	-0.4
2268.57	-0.4
2268.89	0
2269.2	0
2269.51	0.12
2269.82	0.28
2270.13	0.28
2270.44	0.28
2270.76	-0.12
2271.07	-0.24
2271.38	-1
2271.69	-1
2272	-0.92
2272.31	-0.72
2272.62	-1.52
2272.93	-0.92
2273.25	-0.84
2273.56	-0.92
2273.87	-0.72
2274.18	0.08
2274.49	0.08
2274.8	0
2275.11	0
2275.42	0.16
2275.74	0.16
2276.05	0.32
2276.36	0.32
2276.67	0.32
2276.98	0.16
2277.29	0.16
2277.6	0
2277.91	0
2278.22	-0.4
2278.53	-0.4
2278.85	-0.4
2279.16	-1.4
2279.47	-1.4
2279.78	-0.84
2280.09	-0.84
2280.4	-0.84
2280.71	0.16
2281.02	0.16
2281.33	0.08
2281.64	0.08
2281.95	0.08
2282.26	0.24
2282.57	0.28
2282.88	0.28
2283.19	0.28
2283.5	0.28
2283.82	0.12
2284.13	0.08
2284.44	0
2284.75	-0.6
2285.06	-0.6
2285.37	-0.6
2285.68	-0.6
2285.99	-0.6
2286.3	0
2286.61	0
2286.92	0.04
2287.23	0.04
2287.54	0.04
2287.85	0.04
2288.16	0.04
2288.47	0
2288.78	0
2289.09	0
2289.4	0
2289.71	0.04
2290.02	0.12
2290.33	0.12
2290.64	0.12
2290.95	-0.08
2291.26	-0.12
2291.57	-0.2
2291.88	-0.6
2292.19	-0.6
2292.5	-0.4
2292.81	-0.4
2293.12	-0.4
2293.43	0
2293.74	0
2294.05	0
2294.36	0
2294.67	0
2294.98	0
2295.29	0
2295.6	0
2295.91	0
2296.21	0
2296.52	0
2296.83	0
2297.14	0
2297.45	0
2297.76	0
2298.07	0
2298.38	0
2298.69	0
2299	0
2299.31	0
2299.62	0
2299.93	0
2300.24	0
2300.55	0
2300.85	0
2301.16	0
2301.47	0
2301.78	0
2302.09	0
2302.4	0
2302.71	0
2303.02	0
2303.33	0
2303.64	0
2303.94	0
2304.25	0
2304.56	0
2304.87	0
2305.18	0
2305.49	0
2305.8	0
2306.11	0
2306.42	0
2306.72	0
2307.03	0
2307.34	0
2307.65	0
2307.96	0
2308.27	0
2308.58	0
2308.88	0
2309.19	0
2309.5	0
2309.81	0
2310.12	0
2310.43	0
2310.74	0
2311.04	0
2311.35	0
2311.66	0
2311.97	0
2312.28	0
2312.59	0
2312.89	0
2313.2	0
2313.51	0
2313.82	0
2314.13	0
2314.43	0
2314.74	0
2315.05	0
2315.36	0
2315.67	0
2315.97	0
2316.28	0
2316.59	0
2316.9	0
2317.21	0
2317.51	0
2317.82	0
2318.13	0
2318.44	0
2318.75	0
2319.05	0
2319.36	0
2319.67	0
2319.98	0
2320.28	0
2320.59	0
2320.9	0
2321.21	0
2321.51	0
2321.82	0
2322.13	0
2322.44	0
2322.74	0
2323.05	0
2323.36	0
2323.67	0
2323.97	0
2324.28	0
2324.59	0
2324.9	0
2325.2	0
2325.51	0
2325.82	0
2326.13	0
2326.43	0
2326.74	0
2327.05	0
2327.35	0
2327.66	0
2327.97	0
2328.27	0
2328.58	0
2328.89	0
2329.2	0
2329.5	0
2329.81	0
2330.12	0
2330.42	0
2330.73	0
2331.04	0
2331.34	0
2331.65	0
2331.96	0
2332.26	0
2332.57	0
2332.88	0
2333.18	0
2333.49	0
2333.8	0
2334.1	0
2334.41	0
2334.72	0
2335.02	0
2335.33	0
2335.64	0
2335.94	0
2336.25	0
2336.56	0
2336.86	0
2337.17	0
2337.48	0
2337.78	0
2338.09	0
2338.39	0
2338.7	0
2339.01	0
2339.31	0
2339.62	0
2339.93	0
2340.23	0
2340.54	0
2340.84	0
2341.15	0
2341.46	0
2341.76	0
2342.07	0
2342.37	0
2342.68	0
2342.99	0
2343.29	0
2343.6	0
2343.9	0
2344.21	0
2344.51	0
2344.82	0
2345.13	0
2345.43	0
2345.74	0
2346.04	0
2346.35	0
2346.65	0
2346.96	0
2347.27	0
2347.57	0
2347.88	0
2348.18	0
2348.49	0
2348.79	0
2349.1	0
2349.4	0
2349.71	0
2350.01	0
2350.32	0
2350.63	0
2350.93	0
2351.24	0
2351.54	0
2351.85	0
2352.15	0
2352.46	0
2352.76	0
2353.07	0
2353.37	0
2353.68	0
2353.98	0
2354.29	0
2354.59	0
2354.9	0
2355.2	0
2355.51	0
2355.81	0
2356.12	0
2356.42	0
2356.73	0
2357.03	0
2357.34	0
2357.64	0
2357.95	0
2358.25	0
2358.55	0
2358.86	0
2359.16	0
2359.47	0
2359.77	0
2360.08	0
2360.38	0
2360.69	0
2360.99	0
2361.3	0
2361.6	0
2361.9	0
2362.21	0
2362.51	0
2362.82	0
2363.12	0
2363.43	0
2363.73	0
2364.04	0
2364.34	0
2364.64	0
2364.95	0
2365.25	0
2365.56	0
2365.86	0
2366.16	0
2366.47	0
2366.77	0
2367.08	0
2367.38	0
2367.68	0
2367.99	0
2368.29	0
2368.6	0
2368.9	0
2369.2	0
2369.51	0
2369.81	0
2370.12	0
2370.42	0
2370.72	0
2371.03	0
2371.33	0
2371.63	0
2371.94	0
2372.24	0
2372.55	0
2372.85	0
2373.15	0
2373.46	0
2373.76	0
2374.06	0
2374.37	0
2374.67	0
2374.97	0
2375.28	0
2375.58	0
2375.88	0
2376.19	0
2376.49	0
2376.79	0
2377.1	0
2377.4	0
2377.7	0
2378.01	0
2378.31	0
2378.61	0
2378.92	0
2379.22	0
2379.52	0
2379.82	0
2380.13	0
2380.43	0
2380.73	0
2381.04	0
2381.34	0
2381.64	0
2381.95	0
2382.25	0
2382.55	0
2382.85	0
2383.16	0
2383.46	0
2383.76	0
2384.06	0
2384.37	0
2384.67	0
2384.97	0
2385.28	0
2385.58	0
2385.88	0
2386.18	0
2386.49	0
2386.79	0
2387.09	0
2387.39	0
2387.69	0
2388	0
2388.3	0
2388.6	0
2388.9	0
2389.21	0
2389.51	0
2389.81	0
2390.11	0
2390.42	0
2390.72	0
2391.02	0
2391.32	0
2391.62	0
2391.93	0
2392.23	0
2392.53	0
2392.83	0
2393.13	0
2393.44	0
2393.74	0
2394.04	0
2394.34	0
2394.64	0
2394.95	0
2395.25	0
2395.55	0
2395.85	0
2396.15	0
2396.45	0
2396.76	0
2397.06	0
2397.36	0
2397.66	0
2397.96	0
2398.26	0
2398.57	0
2398.87	0
2399.17	0
2399.47	0
2399.77	0
2400.07	0
2400.37	0
2400.68	0
2400.98	0
2401.28	0
2401.58	0
2401.88	0
2402.18	0
2402.48	0
2402.79	0
2403.09	0
2403.39	0
2403.69	0
2403.99	0
2404.29	0
2404.59	0
2404.89	0
2405.19	0
2405.5	0
2405.8	0
2406.1	0
2406.4	0
2406.7	0
2407	0
2407.3	0
2407.6	0
2407.9	0
2408.2	0
2408.5	0
2408.8	0
2409.11	0
2409.41	0
2409.71	0
2410.01	0
2410.31	0
2410.61	0
2410.91	0
2411.21	0
2411.51	0
2411.81	0
2412.11	0
2412.41	0
2412.71	0
2413.01	0
2413.31	0
2413.61	0
2413.91	0
2414.21	0
2414.51	0
2414.81	0
2415.12	0
2415.42	0
2415.72	0
2416.02	0
2416.32	0
2416.62	0
2416.92	0
2417.22	0
2417.52	0
2417.82	0
2418.12	0
2418.42	0
2418.72	0
2419.02	0
2419.32	0
2419.62	0
2419.92	0
2420.22	0
2420.52	0
2420.82	0
2421.12	0
2421.42	0
2421.71	0
2422.01	0
2422.31	0
2422.61	0
2422.91	0
2423.21	0
2423.51	0
2423.81	0
2424.11	0
2424.41	0
2424.71	0
2425.01	0
2425.31	0
2425.61	0
2425.91	0
2426.21	0
2426.51	0
2426.81	0
2427.11	0
2427.41	0
2427.7	0
2428	0
2428.3	0
2428.6	0
2428.9	0
2429.2	0
2429.5	0
2429.8	0
2430.1	0
2430.4	0
2430.7	0
2430.99	0
2431.29	0
2431.59	0
2431.89	0
2432.19	0
2432.49	0
2432.79	0
2433.09	0
2433.39	0
2433.68	0
2433.98	0
2434.28	0
2434.58	0
2434.88	0
2435.18	0
2435.48	0
2435.78	0
2436.07	0
2436.37	0
2436.67	0
2436.97	0
2437.27	0
2437.57	0
2437.86	0
2438.16	0
2438.46	0
2438.76	0
2439.06	0
2439.36	0
2439.66	0
2439.95	0
2440.25	0
2440.55	0
2440.85	0
2441.15	0
2441.44	0
2441.74	0
2442.04	0
2442.34	0
2442.64	0
2442.93	0
2443.23	0
2443.53	0
2443.83	0
2444.13	0
2444.42	0
2444.72	0
2445.02	0
2445.32	0
2445.62	0
2445.91	0
2446.21	0
2446.51	0
2446.81	0
2447.1	0
2447.4	0
2447.7	0
2448	0
2448.3	0
2448.59	0
2448.89	0
2449.19	0
2449.49	0
2449.78	0
2450.08	0
2450.38	0
2450.68	0
2450.97	0
2451.27	0
2451.57	0
2451.87	0
2452.16	0
2452.46	0
2452.76	0
2453.05	0
2453.35	0
2453.65	0
2453.95	0
2454.24	0
2454.54	0
2454.84	0
2455.13	0
2455.43	0
2455.73	0
2456.03	0
2456.32	0
2456.62	0
2456.92	0
2457.21	0
2457.51	0
2457.81	0
2458.1	0
2458.4	0
2458.7	0
2458.99	0
2459.29	0
2459.59	0
2459.88	0
2460.18	0
2460.48	0
2460.77	0
2461.07	0
2461.37	0
2461.66	0
2461.96	0
2462.26	0
2462.55	0
2462.85	0
2463.15	0
2463.44	0
2463.74	0
2464.04	0
2464.33	0
2464.63	0
2464.92	0
2465.22	0
2465.52	0
2465.81	0
2466.11	0
2466.41	0
2466.7	0
2467	0
2467.29	0
2467.59	0
2467.89	0
2468.18	0
2468.48	0
2468.77	0
2469.07	0
2469.37	0
2469.66	0
2469.96	0
2470.25	0
2470.55	0
2470.84	0
2471.14	0
2471.44	0
2471.73	0
2472.03	0
2472.32	0
2472.62	0
2472.91	0
2473.21	0
2473.51	0
2473.8	0
2474.1	0
2474.39	0
2474.69	0
2474.98	0
2475.28	0
2475.57	0
2475.87	0
2476.17	0
2476.46	0
2476.76	0
2477.05	0
2477.35	0
2477.64	0
2477.94	0
2478.23	0
2478.53	0
2478.82	0
2479.12	0
2479.41	0
2479.71	0
2480	0
2480.3	0
2480.59	0
2480.89	0
2481.18	0
2481.48	0
2481.77	0
2482.07	0
2482.36	0
2482.66	0
2482.95	0
2483.25	0
2483.54	0
2483.84	0
2484.13	0
2484.43	0
2484.72	0
2485.02	0
2485.31	0
2485.6	0
2485.9	0
2486.19	0
2486.49	0
2486.78	0
2487.08	0
2487.37	0
2487.67	0
2487.96	0
2488.26	0
2488.55	0
2488.84	0
2489.14	0
2489.43	0
2489.73	0
2490.02	0
2490.32	0
2490.61	0
2490.9	0
2491.2	0
2491.49	0
2491.79	0
2492.08	0
2492.37	0
2492.67	0
2492.96	0
2493.26	0
2493.55	0
2493.84	0
2494.14	0
2494.43	0
2494.73	0
2495.02	0
2495.31	0
2495.61	0
2495.9	0
2496.2	0
2496.49	0
2496.78	0
2497.08	0
2497.37	0
2497.66	0
2497.96	0
2498.25	0
2498.54	0
2498.84	0
2499.13	0
2499.43	0
2499.72	0
2500.01	0
2500.31	0
2500.6	0
2500.89	0
2501.19	0
2501.48	0
2501.77	0
2502.07	0
2502.36	0
2502.65	0
2502.95	0
2503.24	0
2503.53	0
2503.82	0
2504.12	0
2504.41	0
2504.7	0
2505	0
2505.29	0
2505.58	0
2505.88	0
2506.17	0
2506.46	0
2506.76	0
2507.05	0
2507.34	0
2507.63	0
2507.93	0
2508.22	0
2508.51	0
2508.8	0
2509.1	0
2509.39	0
2509.68	0
2509.98	0
2510.27	0
2510.56	0
2510.85	0
2511.15	0
2511.44	0
2511.73	0
2512.02	0
2512.32	0
2512.61	0
2512.9	0
2513.19	0
2513.49	0
2513.78	0
2514.07	0
2514.36	0
2514.65	0
2514.95	0
2515.24	0
2515.53	0
2515.82	0
2516.12	0
2516.41	0
2516.7	0
2516.99	0
2517.28	0
2517.58	0
2517.87	0
2518.16	0
2518.45	0
2518.74	0
2519.04	0
2519.33	0
2519.62	0
2519.91	0
2520.2	0
2520.5	0
2520.79	0
2521.08	0
2521.37	0
2521.66	0
2521.95	0
2522.25	0
2522.54	0
2522.83	0
2523.12	0
2523.41	0
2523.7	0
2523.99	0
2524.29	0
2524.58	0
2524.87	0
2525.16	0
2525.45	0
2525.74	0
2526.03	0
2526.33	0
2526.62	0
2526.91	0
2527.2	0
2527.49	0
2527.78	0
2528.07	0
2528.36	0
2528.66	0
2528.95	0
2529.24	0
2529.53	0
2529.82	0
2530.11	0
2530.4	0
2530.69	0
2530.98	0
2531.27	0
2531.57	0
2531.86	0
2532.15	0
2532.44	0
2532.73	0
2533.02	0
2533.31	0
2533.6	0
2533.89	0
2534.18	0
2534.47	0
2534.76	0
2535.05	0
2535.35	0
2535.64	0
2535.93	0
2536.22	0
2536.51	0
2536.8	0
2537.09	0
2537.38	0
2537.67	0
2537.96	0
2538.25	0
2538.54	0
2538.83	0
2539.12	0
2539.41	0
2539.7	0
2539.99	0
2540.28	0
2540.57	0
2540.86	0
2541.15	0
2541.44	0
2541.73	0
2542.02	0
2542.31	0
2542.6	0
2542.89	0
2543.18	0
2543.47	0
2543.76	0
2544.05	0
2544.34	0
2544.63	0
2544.92	0
2545.21	0
2545.5	0
2545.79	0
2546.08	0
2546.37	0
2546.66	0
2546.95	0
2547.24	0
2547.53	0
2547.82	0
2548.11	0
2548.4	0
2548.69	0
2548.98	0
2549.27	0
2549.55	0
2549.84	0
2550.13	0
2550.42	0
2550.71	0
2551	0
2551.29	0
2551.58	0
2551.87	0
2552.16	0
2552.45	0
2552.74	0
2553.03	0
2553.31	0
2553.6	0
2553.89	0
2554.18	0
2554.47	0
2554.76	0
2555.05	0
2555.34	0
2555.63	0
2555.92	0
2556.2	0
2556.49	0
2556.78	0
2557.07	0
2557.36	0
2557.65	0
2557.94	0
2558.23	0
2558.51	0
2558.8	0
2559.09	0
2559.38	0
2559.67	0
2559.96	0
2560.25	0
2560.53	0
2560.82	0
2561.11	0
2561.4	0
2561.69	0
2561.98	0
2562.27	0
2562.55	0
2562.84	0
2563.13	0
2563.42	0
2563.71	0
2564	0
2564.28	0
2564.57	0
2564.86	0
2565.15	0
2565.44	0
2565.72	0
2566.01	0
2566.3	0
2566.59	0
2566.88	0
2567.16	0
2567.45	0
2567.74	0
2568.03	0
2568.32	0
2568.6	0
2568.89	0
2569.18	0
2569.47	0
2569.75	0

