Source: Spectrum Viewer

Chart: Pulse Spectrum

Series: 
Wavelength (nm)	S (a.u.)
1179.9	0
1180.29	0
1180.68	0
1181.06	0
1181.45	0
1181.83	0
1182.22	0
1182.6	0
1182.99	0
1183.38	0
1183.76	0
1184.15	0
1184.53	0
1184.92	0
1185.3	0
1185.69	0
1186.07	0
1186.46	0
1186.85	0
1187.23	0
1187.62	0
1188	0
1188.39	0
1188.77	0
1189.16	0
1189.54	0
1189.93	0
1190.31	0
1190.7	0
1191.08	0
1191.47	0
1191.85	0
1192.24	0
1192.62	0
1193.01	0
1193.39	0
1193.78	0
1194.16	0
1194.55	0
1194.93	0
1195.32	0
1195.7	0
1196.09	0
1196.47	0
1196.86	0
1197.24	0
1197.63	0
1198.01	0
1198.4	0
1198.78	0
1199.16	0
1199.55	0
1199.93	0
1200.32	0
1200.7	0
1201.09	0
1201.47	0
1201.86	0
1202.24	0
1202.63	0
1203.01	0
1203.39	0
1203.78	0
1204.16	0
1204.55	0
1204.93	0
1205.32	0
1205.7	0
1206.08	0
1206.47	0
1206.85	0
1207.24	0
1207.62	0
1208	0
1208.39	0
1208.77	0
1209.16	0
1209.54	0
1209.92	0
1210.31	0
1210.69	0
1211.08	0
1211.46	0
1211.84	0
1212.23	0
1212.61	0
1213	0
1213.38	0
1213.76	0
1214.15	0
1214.53	0
1214.91	0
1215.3	0
1215.68	0
1216.06	0
1216.45	0
1216.83	0
1217.22	0
1217.6	0
1217.98	0
1218.37	0
1218.75	0
1219.13	0
1219.52	0
1219.9	0
1220.28	0
1220.67	0
1221.05	0
1221.43	0
1221.82	0
1222.2	0
1222.58	0
1222.97	0
1223.35	0
1223.73	0
1224.11	0
1224.5	0
1224.88	0
1225.26	0
1225.65	0
1226.03	0
1226.41	0
1226.8	0
1227.18	0
1227.56	0
1227.94	0
1228.33	0
1228.71	0
1229.09	0
1229.47	0
1229.86	0
1230.24	0
1230.62	0
1231.01	0
1231.39	0
1231.77	0
1232.15	0
1232.54	0
1232.92	0
1233.3	0
1233.68	0
1234.07	0
1234.45	0
1234.83	0
1235.21	0
1235.6	0
1235.98	0
1236.36	0
1236.74	0
1237.12	0
1237.51	0
1237.89	0
1238.27	0
1238.65	0
1239.04	0
1239.42	0
1239.8	0
1240.18	0
1240.56	0
1240.95	0
1241.33	0
1241.71	0
1242.09	0
1242.47	0
1242.86	0
1243.24	0
1243.62	0
1244	0
1244.38	0
1244.77	0
1245.15	0
1245.53	0
1245.91	0
1246.29	0
1246.67	0
1247.06	0
1247.44	0
1247.82	0
1248.2	0
1248.58	0
1248.96	0
1249.34	0
1249.73	0
1250.11	0
1250.49	0
1250.87	0
1251.25	0
1251.63	0
1252.01	0
1252.4	0
1252.78	0
1253.16	0
1253.54	0
1253.92	0
1254.3	0
1254.68	0
1255.06	0
1255.45	0
1255.83	0
1256.21	0
1256.59	0
1256.97	0
1257.35	0
1257.73	0
1258.11	0
1258.49	0
1258.87	0
1259.26	0
1259.64	0
1260.02	0
1260.4	0
1260.78	0
1261.16	0
1261.54	0
1261.92	0
1262.3	0
1262.68	0
1263.06	0
1263.44	0
1263.82	0
1264.21	0
1264.59	0
1264.97	0
1265.35	0
1265.73	0
1266.11	0
1266.49	0
1266.87	0
1267.25	0
1267.63	0
1268.01	0
1268.39	0
1268.77	0
1269.15	0
1269.53	0
1269.91	0
1270.29	0
1270.67	0
1271.05	0
1271.43	0
1271.81	0
1272.19	0
1272.57	0
1272.95	0
1273.33	0
1273.71	0
1274.09	0
1274.47	0
1274.85	0
1275.23	0
1275.61	0
1275.99	0
1276.37	0
1276.75	0
1277.13	0
1277.51	0
1277.89	0
1278.27	0
1278.65	0
1279.03	0
1279.41	0
1279.79	0
1280.17	0
1280.55	0
1280.93	0
1281.31	0
1281.69	0
1282.07	0
1282.45	0
1282.82	0
1283.2	0
1283.58	0
1283.96	0
1284.34	0
1284.72	0
1285.1	0
1285.48	0
1285.86	0
1286.24	0
1286.62	0
1287	0
1287.38	0
1287.75	0
1288.13	0
1288.51	0
1288.89	0
1289.27	0
1289.65	0
1290.03	0
1290.41	0
1290.79	0
1291.17	0
1291.54	0
1291.92	0
1292.3	0
1292.68	0
1293.06	0
1293.44	0
1293.82	0
1294.2	0
1294.57	0
1294.95	0
1295.33	0
1295.71	0
1296.09	0
1296.47	0
1296.85	0
1297.22	0
1297.6	0
1297.98	0
1298.36	0
1298.74	0
1299.12	0
1299.5	0
1299.87	0
1300.25	0
1300.63	0
1301.01	0
1301.39	0
1301.77	0
1302.14	0
1302.52	0
1302.9	0
1303.28	0
1303.66	0
1304.03	0
1304.41	0
1304.79	0
1305.17	0
1305.55	0
1305.92	0
1306.3	0
1306.68	0
1307.06	0
1307.44	0
1307.81	0
1308.19	0
1308.57	0
1308.95	0
1309.32	0
1309.7	0
1310.08	0
1310.46	0
1310.84	0
1311.21	0
1311.59	0
1311.97	0
1312.35	0
1312.72	0
1313.1	0
1313.48	0
1313.86	0
1314.23	0
1314.61	0
1314.99	0
1315.37	0
1315.74	0
1316.12	0
1316.5	0
1316.87	0
1317.25	0
1317.63	0
1318.01	0
1318.38	0
1318.76	0
1319.14	0
1319.52	0
1319.89	0
1320.27	0
1320.65	0
1321.02	0
1321.4	0
1321.78	0
1322.15	0
1322.53	0
1322.91	0
1323.29	0
1323.66	0
1324.04	0
1324.42	0
1324.79	0
1325.17	0
1325.55	0
1325.92	0
1326.3	0
1326.68	0
1327.05	0
1327.43	0
1327.81	0
1328.18	0
1328.56	0
1328.94	0
1329.31	0
1329.69	0
1330.06	0
1330.44	0
1330.82	0
1331.19	0
1331.57	0
1331.95	0
1332.32	0
1332.7	0
1333.08	0
1333.45	0
1333.83	0
1334.2	0
1334.58	0
1334.96	0
1335.33	0
1335.71	0
1336.08	0
1336.46	0
1336.84	0
1337.21	0
1337.59	0
1337.96	0
1338.34	0
1338.72	0
1339.09	0
1339.47	0
1339.84	0
1340.22	0
1340.6	0
1340.97	0
1341.35	0
1341.72	0
1342.1	0
1342.47	0
1342.85	0
1343.23	0
1343.6	0
1343.98	0
1344.35	0
1344.73	0
1345.1	0
1345.48	0
1345.85	0
1346.23	0
1346.61	0
1346.98	0
1347.36	0
1347.73	0
1348.11	0
1348.48	0
1348.86	0
1349.23	0
1349.61	0
1349.98	0
1350.36	0
1350.73	0
1351.11	0
1351.48	0
1351.86	0
1352.23	0
1352.61	0
1352.98	0
1353.36	0
1353.73	0
1354.11	0
1354.48	0
1354.86	0
1355.23	0
1355.61	0
1355.98	0
1356.36	0
1356.73	0
1357.11	0
1357.48	0
1357.86	0
1358.23	0
1358.61	0
1358.98	0
1359.35	0
1359.73	0
1360.1	0
1360.48	0
1360.85	0
1361.23	0
1361.6	0
1361.98	0
1362.35	0
1362.72	0
1363.1	0
1363.47	0
1363.85	0
1364.22	0
1364.6	0
1364.97	0
1365.34	0
1365.72	0
1366.09	0
1366.47	0
1366.84	0
1367.22	0
1367.59	0
1367.96	0
1368.34	0
1368.71	0
1369.09	0.04
1369.46	-0.96
1369.83	-0.96
1370.21	-0.96
1370.58	-0.96
1370.96	-1
1371.33	0.28
1371.7	0.28
1372.08	0.28
1372.45	0.36
1372.82	0.36
1373.2	0.08
1373.57	0.24
1373.95	0.24
1374.32	0.16
1374.69	0.16
1375.07	0.16
1375.44	0
1375.81	0.08
1376.19	0.08
1376.56	0.08
1376.93	0.08
1377.31	0.08
1377.68	0.04
1378.05	0.04
1378.43	0.04
1378.8	0.04
1379.17	0.04
1379.55	0
1379.92	0
1380.29	0
1380.67	0.16
1381.04	0.16
1381.41	0.16
1381.79	0.16
1382.16	0.16
1382.53	0
1382.91	-1
1383.28	-1
1383.65	-1
1384.03	-1
1384.4	-0.96
1384.77	0.04
1385.14	0.04
1385.52	0.08
1385.89	0.16
1386.26	0.12
1386.64	0.12
1387.01	0.12
1387.38	0.08
1387.75	0
1388.13	0
1388.5	0
1388.87	0
1389.25	0
1389.62	-0.2
1389.99	-0.24
1390.36	-0.2
1390.74	-0.2
1391.11	-0.2
1391.48	0.04
1391.85	0.08
1392.23	0.04
1392.6	0.04
1392.97	0.04
1393.34	0
1393.72	0
1394.09	0
1394.46	0
1394.83	0.04
1395.21	0.04
1395.58	0.04
1395.95	0.04
1396.32	0.04
1396.69	0
1397.07	0.32
1397.44	0.32
1397.81	0.32
1398.18	0.32
1398.55	0.36
1398.93	0.04
1399.3	0.16
1399.67	0.16
1400.04	0.2
1400.41	0.16
1400.79	0.16
1401.16	0.04
1401.53	0.04
1401.9	0
1402.27	0
1402.65	0
1403.02	0.04
1403.39	0.24
1403.76	-0.16
1404.13	-0.16
1404.51	-0.16
1404.88	0.04
1405.25	-0.16
1405.62	0.24
1405.99	0.24
1406.36	0.24
1406.74	0
1407.11	0
1407.48	0
1407.85	-1.12
1408.22	-1.08
1408.59	-1.08
1408.96	-1.08
1409.34	-1.08
1409.71	0.04
1410.08	0
1410.45	0
1410.82	0
1411.19	0
1411.56	0
1411.93	0
1412.31	0
1412.68	0
1413.05	0
1413.42	0
1413.79	0
1414.16	0.04
1414.53	0.04
1414.9	5.55654e-19
1415.27	5.55654e-19
1415.65	5.55654e-19
1416.02	-0.04
1416.39	-0.04
1416.76	0
1417.13	0.04
1417.5	0.04
1417.87	0.04
1418.24	0.04
1418.61	0.04
1418.98	0
1419.35	0.08
1419.73	0.08
1420.1	0.08
1420.47	0.2
1420.84	0.2
1421.21	0.12
1421.58	0.24
1421.95	0.24
1422.32	0.2
1422.69	0.2
1423.06	0.2
1423.43	0.08
1423.8	0.08
1424.17	0
1424.54	0
1424.91	0
1425.28	0
1425.65	0
1426.02	0
1426.39	0
1426.76	-0.6
1427.14	-0.6
1427.51	-0.6
1427.88	-0.6
1428.25	-0.52
1428.62	0.08
1428.99	0.08
1429.36	0.12
1429.73	0.16
1430.1	0.08
1430.47	0.16
1430.84	0.16
1431.21	0.12
1431.58	0.12
1431.95	0.12
1432.32	-0.16
1432.69	-0.16
1433.06	-0.16
1433.43	-0.2
1433.8	-0.2
1434.17	0
1434.54	0
1434.91	0
1435.28	0
1435.64	0.08
1436.01	-0.52
1436.38	-0.48
1436.75	-0.48
1437.12	-0.48
1437.49	-0.48
1437.86	0.2
1438.23	0.64
1438.6	0.76
1438.97	0.8
1439.34	0.88
1439.71	0.84
1440.08	0.36
1440.45	0.24
1440.82	-0.36
1441.19	-0.52
1441.56	-0.56
1441.93	-0.48
1442.3	-0.48
1442.67	-1.52
1443.03	-1.48
1443.4	-1.36
1443.77	-1.44
1444.14	-1.44
1444.51	0.16
1444.88	0.12
1445.25	0.08
1445.62	0.08
1445.99	0.08
1446.36	0.08
1446.73	0.08
1447.09	0
1447.46	0.16
1447.83	0.16
1448.2	0.16
1448.57	-0.04
1448.94	-0.04
1449.31	0
1449.68	0
1450.05	0
1450.41	0.2
1450.78	-0.2
1451.15	-0.4
1451.52	-0.4
1451.89	-0.4
1452.26	-0.4
1452.63	0
1453	0
1453.36	0
1453.73	0
1454.1	0
1454.47	0
1454.84	0
1455.21	0
1455.57	-0.4
1455.94	-0.4
1456.31	-0.4
1456.68	-0.4
1457.05	-0.4
1457.42	0
1457.78	0.04
1458.15	0.04
1458.52	0.04
1458.89	0.04
1459.26	0.04
1459.63	0
1459.99	0
1460.36	0
1460.73	0
1461.1	0
1461.47	0.16
1461.83	0.28
1462.2	0.28
1462.57	0.28
1462.94	0.28
1463.31	0.12
1463.67	0
1464.04	-0.2
1464.41	-0.2
1464.78	-0.8
1465.15	-0.8
1465.51	-0.8
1465.88	-0.6
1466.25	-0.6
1466.62	0
1466.98	0.2
1467.35	0.2
1467.72	0.2
1468.09	0.2
1468.46	0.2
1468.82	0
1469.19	0
1469.56	0.16
1469.93	0.2
1470.29	0.2
1470.66	0.2
1471.03	0.2
1471.4	0.04
1471.76	0.12
1472.13	0.16
1472.5	0.16
1472.86	0.16
1473.23	0.16
1473.6	0.2
1473.97	0.16
1474.33	0.16
1474.7	0.16
1475.07	0.16
1475.44	0
1475.8	-0.2
1476.17	-0.2
1476.54	-0.2
1476.9	-0.2
1477.27	-0.2
1477.64	0
1478	0
1478.37	0
1478.74	0
1479.11	0
1479.47	0
1479.84	0
1480.21	0
1480.57	0
1480.94	0
1481.31	0
1481.67	0
1482.04	0.04
1482.41	0.04
1482.77	0.04
1483.14	0.04
1483.51	0.04
1483.87	0.04
1484.24	0.04
1484.61	0.04
1484.97	0.2
1485.34	0.4
1485.71	-0.56
1486.07	-0.56
1486.44	-0.44
1486.81	-0.44
1487.17	-0.64
1487.54	0.44
1487.9	0.64
1488.27	0.52
1488.64	0.16
1489	0.32
1489.37	0.16
1489.74	1.05473e-17
1490.1	0.08
1490.47	0.28
1490.83	0.12
1491.2	0.28
1491.57	0.24
1491.93	0.16
1492.3	0.16
1492.66	0.16
1493.03	0
1493.4	0
1493.76	0
1494.13	0
1494.49	0.12
1494.86	0.12
1495.23	0.12
1495.59	0.44
1495.96	-0.96
1496.32	-1.08
1496.69	-1.08
1497.06	-0.88
1497.42	-2
1497.79	-0.52
1498.15	-0.52
1498.52	-0.52
1498.88	-0.6
1499.25	0.4
1499.62	-0.08
1499.98	-0.08
1500.35	0.04
1500.71	-0.08
1501.08	-0.28
1501.44	0.16
1501.81	0.2
1502.17	0.08
1502.54	0.08
1502.9	0.08
1503.27	0.04
1503.64	0.12
1504	0.12
1504.37	0.12
1504.73	0.12
1505.1	0.16
1505.46	0.08
1505.83	0.08
1506.19	0.08
1506.56	0.08
1506.92	0.04
1507.29	0
1507.65	0
1508.02	0.12
1508.38	0.12
1508.75	0.12
1509.11	0.2
1509.48	0.28
1509.84	0.16
1510.21	0.16
1510.57	0.16
1510.94	0.4
1511.3	0.32
1511.67	0.36
1512.03	0.36
1512.4	0.36
1512.76	0.04
1513.13	-0.76
1513.49	-1
1513.85	-0.88
1514.22	-0.88
1514.58	-0.88
1514.95	0.24
1515.31	0.44
1515.68	0.32
1516.04	0.36
1516.41	0.52
1516.77	0.2
1517.14	0.2
1517.5	0.2
1517.86	0.16
1518.23	0
1518.59	0
1518.96	0
1519.32	0.08
1519.69	0.08
1520.05	0.08
1520.41	0.08
1520.78	0.16
1521.14	0.08
1521.51	0.08
1521.87	0.08
1522.24	0.08
1522.6	0.16
1522.96	0.16
1523.33	0.16
1523.69	0.24
1524.06	0.24
1524.42	0.4
1524.78	0.4
1525.15	0.44
1525.51	0.36
1525.88	0.52
1526.24	0.2
1526.6	0.36
1526.97	0.32
1527.33	0.32
1527.69	0.24
1528.06	0.24
1528.42	0.08
1528.79	0.08
1529.15	-0.72
1529.51	-0.72
1529.88	-0.72
1530.24	-0.56
1530.6	-0.56
1530.97	0.4
1531.33	0.32
1531.69	0.32
1532.06	0.16
1532.42	0.2
1532.78	0.24
1533.15	0.24
1533.51	0.48
1533.87	0.56
1534.24	0.52
1534.6	0.32
1534.96	0.32
1535.33	0.08
1535.69	0.08
1536.05	0.08
1536.42	0.08
1536.78	0.08
1537.14	0.08
1537.51	0.04
1537.87	0.04
1538.23	0.08
1538.6	0.08
1538.96	0.08
1539.32	0.08
1539.68	0.08
1540.05	0.08
1540.41	0.08
1540.77	0.08
1541.14	0.12
1541.5	0.12
1541.86	0.08
1542.23	0.16
1542.59	0.16
1542.95	0.08
1543.31	0.08
1543.68	0.08
1544.04	0
1544.4	0
1544.76	0
1545.13	0
1545.49	0.16
1545.85	0.16
1546.21	0.16
1546.58	0.16
1546.94	0.16
1547.3	0.2
1547.66	0.2
1548.03	0.2
1548.39	0.2
1548.75	0.24
1549.11	0.04
1549.48	0.04
1549.84	0.04
1550.2	0.04
1550.56	0
1550.93	0
1551.29	0
1551.65	0
1552.01	0
1552.37	0.16
1552.74	0.16
1553.1	0.16
1553.46	0.16
1553.82	0.24
1554.18	0.08
1554.55	0.08
1554.91	0.08
1555.27	0.12
1555.63	0.04
1555.99	0.2
1556.36	0.44
1556.72	-1.16
1557.08	-1.2
1557.44	-1.2
1557.8	-1.36
1558.17	-1.6
1558.53	0
1558.89	0
1559.25	0
1559.61	0
1559.97	0
1560.34	0
1560.7	0.04
1561.06	0.04
1561.42	0.04
1561.78	0.08
1562.14	-0.28
1562.5	-0.16
1562.87	-0.16
1563.23	-0.16
1563.59	-0.56
1563.95	-0.08
1564.31	-0.24
1564.67	-0.24
1565.03	-0.24
1565.4	0.12
1565.76	0
1566.12	0
1566.48	0.32
1566.84	0.32
1567.2	0.32
1567.56	0.28
1567.92	0.32
1568.29	0.04
1568.65	0.12
1569.01	0.16
1569.37	-0.2
1569.73	-0.24
1570.09	-0.28
1570.45	0.04
1570.81	0
1571.17	0.4
1571.53	0.48
1571.89	0.48
1572.26	0.08
1572.62	0.08
1572.98	0.08
1573.34	0
1573.7	0
1574.06	0.2
1574.42	0.24
1574.78	0.04
1575.14	0.04
1575.5	0.2
1575.86	-0.8
1576.22	-0.84
1576.58	-0.64
1576.94	-0.44
1577.3	-0.52
1577.67	0.28
1578.03	0.28
1578.39	0.28
1578.75	0.08
1579.11	0
1579.47	0.12
1579.83	0.28
1580.19	0.28
1580.55	0.28
1580.91	0.28
1581.27	0.16
1581.63	0
1581.99	0.04
1582.35	0.04
1582.71	0.12
1583.07	0.16
1583.43	0.48
1583.79	0.44
1584.15	0.44
1584.51	0.44
1584.87	0.68
1585.23	0.52
1585.59	0.52
1585.95	0.52
1586.31	0.44
1586.67	0.16
1587.03	0.08
1587.39	0.6
1587.75	0.6
1588.11	0.76
1588.47	0.8
1588.83	0.72
1589.19	0.24
1589.55	0.32
1589.91	0.16
1590.27	0.12
1590.63	0.16
1590.99	0.2
1591.35	0.12
1591.71	0.12
1592.07	0.12
1592.42	0.08
1592.78	0
1593.14	0
1593.5	0
1593.86	0.12
1594.22	0.2
1594.58	0.24
1594.94	0.24
1595.3	0.32
1595.66	0.2
1596.02	0.2
1596.38	0.16
1596.74	0.16
1597.1	0.08
1597.46	0.08
1597.81	0
1598.17	0
1598.53	0
1598.89	0.04
1599.25	0.32
1599.61	0.36
1599.97	0.44
1600.33	0.44
1600.69	0.4
1601.05	0.12
1601.4	0.08
1601.76	-0.08
1602.12	-0.08
1602.48	2.10945e-17
1602.84	0.2
1603.2	0.2
1603.56	0.48
1603.92	0.52
1604.28	0.44
1604.63	0.32
1604.99	0.4
1605.35	0.2
1605.71	0.16
1606.07	0.16
1606.43	0.08
1606.79	0
1607.14	0.28
1607.5	0.28
1607.86	0.32
1608.22	0.64
1608.58	0.64
1608.94	0.48
1609.29	0.48
1609.65	0.24
1610.01	-0.08
1610.37	0.04
1610.73	-0.08
1611.09	-0.04
1611.44	0.16
1611.8	0.16
1612.16	0.04
1612.52	0.04
1612.88	0
1613.24	0
1613.59	0
1613.95	0
1614.31	0.08
1614.67	0.32
1615.03	0.36
1615.38	0.44
1615.74	0.88
1616.1	0.8
1616.46	0.72
1616.82	0.68
1617.17	0.72
1617.53	0.28
1617.89	0.28
1618.25	0.16
1618.6	0.28
1618.96	0.24
1619.32	0.24
1619.68	0.28
1620.04	0.32
1620.39	2.77556e-17
1620.75	-0.04
1621.11	-0.04
1621.47	-0.08
1621.82	0.16
1622.18	0.36
1622.54	0.36
1622.9	0.4
1623.25	-0.6
1623.61	-0.76
1623.97	-0.76
1624.33	-0.8
1624.68	-1.04
1625.04	0.12
1625.4	1.05473e-17
1625.75	-0.6
1626.11	-0.56
1626.47	-0.32
1626.83	-0.28
1627.18	-0.32
1627.54	0.48
1627.9	0.72
1628.26	0.68
1628.61	0.64
1628.97	0.64
1629.33	0.44
1629.68	0.32
1630.04	0.32
1630.4	-0.44
1630.75	-0.28
1631.11	-0.12
1631.47	-0.48
1631.83	-0.48
1632.18	0.12
1632.54	2.4425e-17
1632.9	-0.12
1633.25	0.12
1633.61	0.12
1633.97	0.12
1634.32	0.28
1634.68	0.24
1635.04	0.2
1635.39	0.52
1635.75	0.52
1636.11	0.32
1636.46	0.68
1636.82	0.68
1637.18	0.36
1637.53	0.64
1637.89	0.64
1638.25	0.28
1638.6	0.28
1638.96	0.36
1639.31	0.12
1639.67	0.12
1640.03	0.12
1640.38	0.12
1640.74	0.04
1641.1	0.08
1641.45	0.08
1641.81	0.08
1642.16	0.16
1642.52	0.24
1642.88	0.16
1643.23	-0.4
1643.59	-0.36
1643.95	-0.32
1644.3	-0.32
1644.66	-0.16
1645.01	0.4
1645.37	0.4
1645.73	0.28
1646.08	0.2
1646.44	0.12
1646.79	-0.48
1647.15	-0.44
1647.51	-0.4
1647.86	-0.4
1648.22	-0.48
1648.57	-0.68
1648.93	-0.76
1649.28	-0.64
1649.64	-0.64
1650	-0.56
1650.35	0.24
1650.71	0.24
1651.06	0.08
1651.42	0.08
1651.77	-0.2
1652.13	-0.2
1652.48	-0.2
1652.84	-0.2
1653.2	-0.2
1653.55	0.04
1653.91	0.04
1654.26	0.04
1654.62	0.08
1654.97	0.28
1655.33	0.24
1655.68	0.24
1656.04	0.36
1656.39	0.32
1656.75	0.16
1657.1	0.16
1657.46	0.16
1657.81	0.04
1658.17	0.28
1658.52	0.24
1658.88	0.28
1659.23	0.48
1659.59	0.76
1659.94	0.6
1660.3	0.6
1660.65	0.56
1661.01	0.36
1661.36	0.24
1661.72	0.28
1662.07	0.28
1662.43	0.28
1662.78	0.28
1663.14	0.16
1663.49	0.04
1663.85	0.24
1664.2	0.36
1664.56	0.36
1664.91	-1.32
1665.27	-1.28
1665.62	-1.44
1665.98	-1.48
1666.33	-1.36
1666.69	0.4
1667.04	0.48
1667.39	0.44
1667.75	0.4
1668.1	0.28
1668.46	0.16
1668.81	0.12
1669.17	0.2
1669.52	0.24
1669.88	0.4
1670.23	0.76
1670.58	0.68
1670.94	0.84
1671.29	1.12
1671.65	0.96
1672	0.64
1672.36	0.64
1672.71	0.4
1673.06	0.04
1673.42	1.44334e-17
1673.77	-0.04
1674.13	0.08
1674.48	0.08
1674.83	0.16
1675.19	0.4
1675.54	0.6
1675.9	0.68
1676.25	0.68
1676.6	0.72
1676.96	0.64
1677.31	0.44
1677.67	0.24
1678.02	0.32
1678.37	0.28
1678.73	0.28
1679.08	0.28
1679.43	0.28
1679.79	0.24
1680.14	0.56
1680.5	-0.16
1680.85	-0.16
1681.2	-0.08
1681.56	0.32
1681.91	0.12
1682.26	0.92
1682.62	0.92
1682.97	0.92
1683.32	0.56
1683.68	0.44
1684.03	0.28
1684.38	0.28
1684.74	0.2
1685.09	0.16
1685.44	6.66107e-18
1685.8	0.08
1686.15	0.08
1686.5	0.2
1686.86	0.24
1687.21	0.16
1687.56	0.24
1687.92	0.32
1688.27	0.56
1688.62	0.96
1688.98	1.12
1689.33	0.96
1689.68	1.12
1690.03	1.16
1690.39	0.76
1690.74	0.76
1691.09	0.76
1691.45	0.48
1691.8	0.08
1692.15	0.04
1692.5	0.12
1692.86	0.32
1693.21	0.64
1693.56	0.64
1693.92	0.84
1694.27	0.28
1694.62	0.04
1694.97	-0.2
1695.33	0.04
1695.68	-0.2
1696.03	0.28
1696.38	0.56
1696.74	0.52
1697.09	0.4
1697.44	0.4
1697.79	0.48
1698.15	0.2
1698.5	0.24
1698.85	0.2
1699.2	-0.4
1699.56	-0.24
1699.91	0.24
1700.26	0.64
1700.61	0.6
1700.97	1.2
1701.32	1.4
1701.67	1
1702.02	0.8
1702.37	0.76
1702.73	0.8
1703.08	0.48
1703.43	0.4
1703.78	0.2
1704.13	0.32
1704.49	0.56
1704.84	0.48
1705.19	0.56
1705.54	0.68
1705.89	0.56
1706.25	0.28
1706.6	0.24
1706.95	0.68
1707.3	0.52
1707.65	0.84
1708.01	1.04
1708.36	1.28
1708.71	0.84
1709.06	1
1709.41	0.88
1709.76	0.84
1710.12	0.96
1710.47	1.12
1710.82	1.08
1711.17	0.92
1711.52	0.84
1711.87	0.52
1712.23	0.44
1712.58	0.36
1712.93	0.8
1713.28	0.92
1713.63	0.88
1713.98	0.88
1714.33	0.84
1714.69	0.64
1715.04	0.52
1715.39	0.52
1715.74	0.6
1716.09	0.6
1716.44	0.32
1716.79	0.24
1717.14	0.24
1717.5	0
1717.85	0.08
1718.2	0.12
1718.55	0.12
1718.9	1.12
1719.25	1.44
1719.6	1.56
1719.95	1.6
1720.3	1.6
1720.65	0.68
1721.01	0.36
1721.36	0.52
1721.71	0.68
1722.06	0.24
1722.41	-0.04
1722.76	0.12
1723.11	-0.24
1723.46	-0.48
1723.81	0.24
1724.16	0.8
1724.51	0.68
1724.86	0.68
1725.21	0.72
1725.56	0.56
1725.92	0.2
1726.27	0.36
1726.62	0.72
1726.97	0.8
1727.32	0.52
1727.67	0.52
1728.02	0.32
1728.37	-0.04
1728.72	-0.16
1729.07	0
1729.42	0.08
1729.77	0.08
1730.12	0.08
1730.47	0.24
1730.82	0.36
1731.17	0.32
1731.52	0.32
1731.87	0.68
1732.22	0.52
1732.57	0.4
1732.92	0.36
1733.27	0.4
1733.62	0.04
1733.97	0.04
1734.32	0.12
1734.67	0.16
1735.02	-0.28
1735.37	-0.28
1735.72	-0.28
1736.07	-0.32
1736.42	-0.24
1736.77	0.6
1737.12	0.6
1737.47	0.84
1737.82	0.84
1738.17	0.72
1738.52	0.28
1738.87	0.28
1739.22	0.12
1739.57	0.08
1739.92	0.08
1740.27	0.08
1740.62	0.24
1740.97	0.16
1741.32	0.16
1741.67	0.16
1742.02	0.16
1742.37	0
1742.72	0.04
1743.06	0.04
1743.41	0.04
1743.76	0.04
1744.11	-1.12
1744.46	-1.04
1744.81	-0.64
1745.16	-0.64
1745.51	-0.64
1745.86	0.52
1746.21	0.56
1746.56	0.2
1746.91	0.28
1747.26	0.28
1747.6	0.28
1747.95	0.12
1748.3	0.08
1748.65	0.16
1749	0.16
1749.35	0.36
1749.7	0.44
1750.05	0.44
1750.4	0.28
1750.75	0.48
1751.09	0.48
1751.44	0.4
1751.79	0
1752.14	0.04
1752.49	-0.16
1752.84	-0.36
1753.19	-0.16
1753.54	0.24
1753.88	0.48
1754.23	0.76
1754.58	0.92
1754.93	0.88
1755.28	1
1755.63	1.08
1755.98	0.96
1756.32	0.8
1756.67	0.72
1757.02	0.76
1757.37	0.52
1757.72	1.56
1758.07	1.8
1758.42	2.12
1758.76	2.64
1759.11	2.28
1759.46	1.24
1759.81	1.4
1760.16	1.24
1760.5	2.04
1760.85	2.08
1761.2	2.52
1761.55	3.68
1761.9	3.72
1762.25	3.04
1762.59	4.56
1762.94	4.88
1763.29	3.8
1763.64	4.2
1763.99	4.44
1764.33	5.88
1764.68	5.52
1765.03	6
1765.38	8.16
1765.73	9.84
1766.07	8.48
1766.42	10.56
1766.77	12.16
1767.12	13.64
1767.46	13.4
1767.81	14.32
1768.16	15.84
1768.51	14.6
1768.85	11.84
1769.2	13.44
1769.55	14.6
1769.9	13.92
1770.25	16.44
1770.59	19.56
1770.94	21.08
1771.29	21.56
1771.64	22.36
1771.98	23.52
1772.33	23.76
1772.68	23.64
1773.02	26.44
1773.37	30.24
1773.72	30.84
1774.07	34.48
1774.41	36.48
1774.76	36.6
1775.11	36.8
1775.46	38.32
1775.8	35.2
1776.15	36.48
1776.5	37.68
1776.84	38.92
1777.19	43.44
1777.54	47.08
1777.89	50.28
1778.23	53.48
1778.58	52.92
1778.93	52.76
1779.27	53.6
1779.62	51.16
1779.97	49.92
1780.31	51.4
1780.66	50.64
1781.01	52.48
1781.35	55.56
1781.7	59.76
1782.05	62.08
1782.39	63.56
1782.74	64.52
1783.09	64.92
1783.43	64.28
1783.78	65.4
1784.13	67.4
1784.47	66.88
1784.82	66.64
1785.17	64.84
1785.51	63.36
1785.86	64.32
1786.21	68.16
1786.55	73.36
1786.9	80.12
1787.25	86.88
1787.59	90
1787.94	89.68
1788.29	85.88
1788.63	82.6
1788.98	80.52
1789.32	77.12
1789.67	73.88
1790.02	71.68
1790.36	73.28
1790.71	79.08
1791.06	87.64
1791.4	96.64
1791.75	108.12
1792.09	119.4
1792.44	125.12
1792.79	127.96
1793.13	135.88
1793.48	136.2
1793.82	134.72
1794.17	127.8
1794.52	120.72
1794.86	113.88
1795.21	107.32
1795.55	91
1795.9	81.04
1796.24	93.12
1796.59	111.64
1796.94	127.68
1797.28	144.56
1797.63	160.92
1797.97	153.64
1798.32	133.08
1798.66	130.72
1799.01	130.44
1799.36	124.36
1799.7	126.52
1800.05	129.44
1800.39	122.08
1800.74	130
1801.08	149.56
1801.43	162.64
1801.77	165.56
1802.12	172.4
1802.46	169.84
1802.81	156.24
1803.15	144.68
1803.5	139.68
1803.85	125.56
1804.19	113.28
1804.54	113.44
1804.88	108.96
1805.23	110.68
1805.57	134.48
1805.92	158
1806.26	160.56
1806.61	160.84
1806.95	172.12
1807.3	175.72
1807.64	175.2
1807.99	179.6
1808.33	179.96
1808.68	168.6
1809.02	167.72
1809.37	175.72
1809.71	185.6
1810.06	192.24
1810.4	192.72
1810.75	177.36
1811.09	174.44
1811.43	186.12
1811.78	214.84
1812.12	239.92
1812.47	256.44
1812.81	250.16
1813.16	231.84
1813.5	209.96
1813.85	199.88
1814.19	186.72
1814.54	172
1814.88	161.16
1815.23	143.24
1815.57	117.24
1815.91	98.08
1816.26	105
1816.6	130.4
1816.95	149.52
1817.29	170.04
1817.64	201.28
1817.98	225.28
1818.32	222.04
1818.67	228.88
1819.01	241.44
1819.36	230.2
1819.7	206.84
1820.05	197.64
1820.39	186.36
1820.73	174.24
1821.08	182.56
1821.42	173.8
1821.77	154.56
1822.11	141.24
1822.45	131.44
1822.8	118.04
1823.14	110.2
1823.49	119.96
1823.83	155.92
1824.17	186.88
1824.52	201.36
1824.86	216.08
1825.2	219.44
1825.55	189.88
1825.89	152.96
1826.24	140.6
1826.58	157.36
1826.92	161.96
1827.27	172.2
1827.61	189.44
1827.95	187.6
1828.3	166.36
1828.64	148.4
1828.98	122
1829.33	106.56
1829.67	130.24
1830.02	140.4
1830.36	154
1830.7	186.12
1831.05	201.44
1831.39	188.44
1831.73	177.6
1832.08	166.52
1832.42	152.84
1832.76	142.84
1833.1	125.56
1833.45	117.76
1833.79	112.16
1834.13	104.16
1834.48	105.12
1834.82	106.08
1835.16	103.56
1835.51	107.64
1835.85	102.16
1836.19	87.6
1836.54	77.84
1836.88	70.84
1837.22	54.88
1837.56	52.8
1837.91	60.4
1838.25	72.88
1838.59	92.8
1838.94	104.44
1839.28	99.28
1839.62	97.6
1839.96	92.32
1840.31	69
1840.65	55.56
1840.99	66.12
1841.34	84.6
1841.68	96.24
1842.02	114.76
1842.36	125.56
1842.71	113.12
1843.05	88.8
1843.39	85.44
1843.73	90.56
1844.08	103.96
1844.42	126.64
1844.76	138.36
1845.1	128.76
1845.45	113.2
1845.79	103.88
1846.13	96
1846.47	88.76
1846.81	80.76
1847.16	76.96
1847.5	80.32
1847.84	82.56
1848.18	87.8
1848.53	94.92
1848.87	97.32
1849.21	89
1849.55	76.08
1849.89	64.36
1850.24	59.2
1850.58	56.28
1850.92	48.84
1851.26	46.96
1851.6	48.52
1851.95	44.8
1852.29	42.2
1852.63	42.56
1852.97	37.24
1853.31	31.44
1853.66	27.56
1854	21.44
1854.34	26.36
1854.68	38.16
1855.02	40.8
1855.36	44.08
1855.71	47.12
1856.05	39.24
1856.39	29.72
1856.73	23.12
1857.07	19.2
1857.41	21.12
1857.76	18.84
1858.1	14.64
1858.44	14.8
1858.78	14.24
1859.12	8.72
1859.46	8.8
1859.8	7.52
1860.15	8.24
1860.49	19.16
1860.83	24.52
1861.17	23.64
1861.51	26.4
1861.85	25.84
1862.19	15.44
1862.53	12.52
1862.88	14.8
1863.22	13.16
1863.56	14.96
1863.9	15.36
1864.24	13.44
1864.58	12.32
1864.92	11.56
1865.26	8.84
1865.6	6.4
1865.94	5.52
1866.29	4.28
1866.63	4.04
1866.97	5.32
1867.31	6.76
1867.65	7.8
1867.99	9.44
1868.33	10.6
1868.67	11.24
1869.01	14.08
1869.35	22.12
1869.69	24.84
1870.03	28.16
1870.37	30.36
1870.72	26.4
1871.06	18.12
1871.4	14.44
1871.74	11.36
1872.08	12.52
1872.42	20.08
1872.76	24.68
1873.1	25.08
1873.44	25.52
1873.78	21.88
1874.12	18.28
1874.46	20.96
1874.8	27.4
1875.14	31.28
1875.48	33.96
1875.82	34.52
1876.16	32
1876.5	26.44
1876.84	23.48
1877.18	20.8
1877.52	17.2
1877.86	13.84
1878.2	15.84
1878.54	16.04
1878.88	17.08
1879.22	20.28
1879.56	21.6
1879.9	21.52
1880.24	23.36
1880.58	26.12
1880.92	26.16
1881.26	27.28
1881.6	28.84
1881.94	28.6
1882.28	32.32
1882.62	37.28
1882.96	39.96
1883.3	40.08
1883.64	39.88
1883.98	35.88
1884.32	31.96
1884.66	29.96
1885	30.36
1885.34	32.68
1885.68	36.24
1886.02	35.84
1886.36	36.28
1886.7	37.48
1887.04	37.8
1887.38	36.64
1887.72	39
1888.06	40.64
1888.39	41.68
1888.73	45.92
1889.07	54
1889.41	54.32
1889.75	56.76
1890.09	60
1890.43	57.2
1890.77	46.12
1891.11	45.56
1891.45	42.96
1891.79	39.36
1892.13	39.72
1892.47	45.48
1892.8	47.84
1893.14	50.4
1893.48	55.72
1893.82	56.64
1894.16	55.44
1894.5	56.04
1894.84	55.56
1895.18	51.76
1895.52	53.88
1895.86	55.48
1896.19	55.16
1896.53	57.24
1896.87	60.24
1897.21	59.64
1897.55	61.32
1897.89	65.76
1898.23	66.88
1898.57	64.8
1898.9	64.88
1899.24	65.4
1899.58	62.32
1899.92	63.48
1900.26	65.32
1900.6	65.84
1900.94	66.16
1901.27	67.72
1901.61	66.36
1901.95	67.28
1902.29	70.24
1902.63	70.76
1902.97	71.96
1903.3	72.36
1903.64	72.44
1903.98	71.68
1904.32	71.68
1904.66	71.68
1905	72
1905.33	72.68
1905.67	73.16
1906.01	74.08
1906.35	74.96
1906.69	74.04
1907.02	72.88
1907.36	71.24
1907.7	71.24
1908.04	70.44
1908.38	72.28
1908.71	71.92
1909.05	73.76
1909.39	72.32
1909.73	71.8
1910.07	71.52
1910.4	72
1910.74	70.72
1911.08	71.04
1911.42	72.92
1911.76	73.12
1912.09	73.72
1912.43	74.2
1912.77	75.16
1913.11	73.96
1913.44	74
1913.78	74.36
1914.12	74.88
1914.46	73.76
1914.79	72.12
1915.13	72.96
1915.47	71.48
1915.81	71.28
1916.14	71.96
1916.48	73.36
1916.82	71.72
1917.16	73.44
1917.49	72.88
1917.83	73.64
1918.17	73.84
1918.5	74.28
1918.84	72.8
1919.18	73.48
1919.52	73.64
1919.85	72.64
1920.19	72.8
1920.53	74.76
1920.87	73.88
1921.2	72.36
1921.54	72.92
1921.88	72.88
1922.21	70.6
1922.55	72.08
1922.89	71.88
1923.22	71.6
1923.56	70.92
1923.9	73.04
1924.23	70.12
1924.57	70.76
1924.91	71.48
1925.25	71.84
1925.58	70.24
1925.92	71.96
1926.26	70.88
1926.59	68.44
1926.93	67.8
1927.27	67.48
1927.6	66.16
1927.94	68.08
1928.28	69.76
1928.61	69.08
1928.95	69.48
1929.29	70.36
1929.62	68.36
1929.96	66.08
1930.29	66.36
1930.63	65.56
1930.97	65.2
1931.3	66.24
1931.64	68.84
1931.98	68.84
1932.31	68.36
1932.65	68.96
1932.99	68.2
1933.32	67.64
1933.66	68.12
1933.99	68.04
1934.33	66.76
1934.67	67.64
1935	66.68
1935.34	64.92
1935.67	66
1936.01	66.08
1936.35	63.88
1936.68	64.16
1937.02	64.24
1937.35	63.24
1937.69	63.44
1938.03	64.08
1938.36	61.84
1938.7	61.88
1939.03	62.92
1939.37	63.04
1939.7	64.48
1940.04	66.56
1940.38	67.44
1940.71	67.68
1941.05	67.84
1941.38	67.24
1941.72	67.08
1942.05	66.84
1942.39	66.36
1942.73	66.2
1943.06	66.36
1943.4	66.92
1943.73	66.92
1944.07	67.16
1944.4	66.68
1944.74	66.96
1945.07	68.64
1945.41	69.76
1945.74	69.28
1946.08	71.04
1946.42	69.72
1946.75	67.8
1947.09	68.64
1947.42	69.56
1947.76	66.92
1948.09	66.56
1948.43	68
1948.76	68.32
1949.1	67.12
1949.43	69.64
1949.77	71.56
1950.1	70.04
1950.44	68.32
1950.77	68.64
1951.11	67.56
1951.44	65.76
1951.78	66.52
1952.11	68.12
1952.45	69.12
1952.78	69.56
1953.12	71.92
1953.45	70.56
1953.79	68.88
1954.12	69.8
1954.46	69.56
1954.79	67.8
1955.12	68.04
1955.46	68.88
1955.79	67.92
1956.13	67.72
1956.46	68.4
1956.8	68.12
1957.13	67.88
1957.47	67.56
1957.8	69.44
1958.14	69.12
1958.47	68.6
1958.8	67.92
1959.14	67.8
1959.47	64.68
1959.81	64.36
1960.14	65.44
1960.48	65.56
1960.81	66.08
1961.14	67.08
1961.48	68.6
1961.81	68.16
1962.15	67.08
1962.48	67.04
1962.82	66.4
1963.15	64.2
1963.48	65.8
1963.82	67.4
1964.15	65.6
1964.49	64.6
1964.82	64.88
1965.15	64.04
1965.49	61.96
1965.82	61.24
1966.16	61.92
1966.49	61.08
1966.82	58.12
1967.16	58.24
1967.49	60.16
1967.83	58.92
1968.16	57.88
1968.49	58.36
1968.83	57.92
1969.16	55.76
1969.49	55.04
1969.83	55.56
1970.16	55
1970.49	53.6
1970.83	52
1971.16	51.68
1971.5	48.76
1971.83	49.32
1972.16	49.92
1972.5	49.68
1972.83	49.32
1973.16	50.76
1973.5	49.24
1973.83	46.36
1974.16	45.16
1974.5	43.84
1974.83	42.64
1975.16	42.28
1975.5	43.08
1975.83	43.36
1976.16	43.24
1976.49	43.44
1976.83	42.36
1977.16	42.24
1977.49	43.36
1977.83	42.56
1978.16	40.4
1978.49	40.12
1978.83	39.4
1979.16	38.24
1979.49	36.96
1979.83	37.84
1980.16	36.24
1980.49	35.96
1980.82	34.72
1981.16	35
1981.49	34.2
1981.82	34.48
1982.15	33.2
1982.49	30.52
1982.82	30.76
1983.15	29.48
1983.49	27.68
1983.82	26.84
1984.15	27.4
1984.48	26.76
1984.82	26.4
1985.15	26.6
1985.48	26.84
1985.81	26.4
1986.15	24.4
1986.48	24.04
1986.81	24.64
1987.14	22.8
1987.48	22.84
1987.81	22.84
1988.14	21.84
1988.47	19.84
1988.81	19.84
1989.14	18.56
1989.47	18.12
1989.8	18.4
1990.13	18.12
1990.47	17.32
1990.8	16.2
1991.13	14.2
1991.46	11.88
1991.79	10.84
1992.13	8.68
1992.46	9.04
1992.79	10.04
1993.12	10.68
1993.45	10.96
1993.79	12.16
1994.12	12.12
1994.45	12.24
1994.78	10.76
1995.11	9.88
1995.45	9.32
1995.78	8.4
1996.11	8
1996.44	8.12
1996.77	7.56
1997.1	7.56
1997.44	7.76
1997.77	6.44
1998.1	6.92
1998.43	6.84
1998.76	7.16
1999.09	6.28
1999.43	5.8
1999.76	4.76
2000.09	5.16
2000.42	4.44
2000.75	3.32
2001.08	3.92
2001.41	4.72
2001.75	4.12
2002.08	4.16
2002.41	5.56
2002.74	5.64
2003.07	5.2
2003.4	4.92
2003.73	5.4
2004.06	5.4
2004.4	5.64
2004.73	5.76
2005.06	6.48
2005.39	6
2005.72	5.56
2006.05	4.72
2006.38	4.64
2006.71	4.12
2007.04	3.8
2007.37	3.52
2007.71	3.56
2008.04	3.72
2008.37	3.64
2008.7	4.96
2009.03	5.12
2009.36	6.28
2009.69	6
2010.02	6.76
2010.35	6.68
2010.68	6.92
2011.01	5.96
2011.34	6.12
2011.67	5.16
2012.01	4.08
2012.34	4.4
2012.67	4.76
2013	5.04
2013.33	5.28
2013.66	5.56
2013.99	6.24
2014.32	6.32
2014.65	5.92
2014.98	6.8
2015.31	6.6
2015.64	6.56
2015.97	6.92
2016.3	7.08
2016.63	6.96
2016.96	6.8
2017.29	5.48
2017.62	5.24
2017.95	6.72
2018.28	7.08
2018.61	7.76
2018.94	8.48
2019.27	8.84
2019.6	6.92
2019.93	6.24
2020.26	6
2020.59	5.36
2020.92	4.68
2021.25	5.4
2021.58	4.84
2021.91	4.6
2022.24	5.24
2022.57	5.04
2022.9	5.04
2023.23	5.52
2023.56	5.44
2023.89	6.04
2024.22	7.24
2024.55	7.32
2024.88	7.04
2025.21	8.72
2025.54	8.16
2025.87	7.84
2026.2	8
2026.53	8.96
2026.86	7.36
2027.19	6.8
2027.52	6.44
2027.85	6.32
2028.18	5.52
2028.51	6.4
2028.84	6.48
2029.16	5.44
2029.49	5.68
2029.82	5.4
2030.15	5.4
2030.48	5.64
2030.81	6.4
2031.14	5.8
2031.47	5.96
2031.8	4.92
2032.13	4.96
2032.46	5.32
2032.79	5.6
2033.12	6.68
2033.44	7.4
2033.77	6.84
2034.1	6.92
2034.43	7.2
2034.76	6.24
2035.09	6.12
2035.42	6.44
2035.75	5.56
2036.08	5.12
2036.41	5.08
2036.73	4.36
2037.06	3.76
2037.39	4.12
2037.72	4.36
2038.05	3.8
2038.38	3.72
2038.71	4.28
2039.04	2.8
2039.36	2.08
2039.69	2.48
2040.02	2
2040.35	1.68
2040.68	2.96
2041.01	3.2
2041.34	3.32
2041.66	4.32
2041.99	5.48
2042.32	5.8
2042.65	5.68
2042.98	5.68
2043.31	5.44
2043.63	4.16
2043.96	3.88
2044.29	3.88
2044.62	3.72
2044.95	3.4
2045.28	3.2
2045.6	3.64
2045.93	3
2046.26	2.8
2046.59	2.48
2046.92	2.8
2047.24	2.28
2047.57	2.4
2047.9	2.36
2048.23	2.6
2048.56	2.52
2048.88	2.44
2049.21	2.48
2049.54	2.88
2049.87	3.12
2050.2	4
2050.52	4.28
2050.85	4.88
2051.18	4.64
2051.51	4.2
2051.83	3.28
2052.16	2.72
2052.49	3.12
2052.82	2.92
2053.15	2.76
2053.47	2.6
2053.8	3.44
2054.13	2.72
2054.46	2.92
2054.78	3.16
2055.11	3.4
2055.44	3.6
2055.77	3.32
2056.09	3
2056.42	3.32
2056.75	3.32
2057.08	2.2
2057.4	2.36
2057.73	2.92
2058.06	3.08
2058.38	2.6
2058.71	2.4
2059.04	3.32
2059.37	2.6
2059.69	2.28
2060.02	2.68
2060.35	2.72
2060.67	1.52
2061	2.08
2061.33	1.52
2061.66	1.2
2061.98	1.32
2062.31	1.16
2062.64	0.84
2062.96	1.2
2063.29	1.08
2063.62	0.92
2063.94	1.04
2064.27	1.6
2064.6	0.72
2064.92	1.04
2065.25	1
2065.58	1.04
2065.91	1.12
2066.23	2
2066.56	1.76
2066.89	2
2067.21	1.8
2067.54	1.28
2067.87	1.16
2068.19	1.28
2068.52	1.28
2068.84	1.48
2069.17	1
2069.5	0.88
2069.82	0.52
2070.15	0.48
2070.48	0.56
2070.8	0.6
2071.13	0.64
2071.46	0.8
2071.78	0.8
2072.11	0.8
2072.43	0.96
2072.76	1.12
2073.09	1.12
2073.41	0.92
2073.74	0.76
2074.07	0.92
2074.39	0.68
2074.72	1.12
2075.04	1.16
2075.37	1
2075.7	1.4
2076.02	1.56
2076.35	1.28
2076.67	1.24
2077	1.32
2077.33	0.56
2077.65	0.44
2077.98	0.32
2078.3	0.76
2078.63	0.76
2078.95	0.8
2079.28	0.92
2079.61	0.6
2079.93	0.12
2080.26	0.32
2080.58	0.4
2080.91	0.24
2081.23	0.68
2081.56	1.04
2081.89	0.92
2082.21	0.8
2082.54	1.24
2082.86	1.2
2083.19	0.84
2083.51	0.68
2083.84	0.84
2084.16	0.32
2084.49	0.28
2084.81	0.28
2085.14	0.4
2085.46	0.24
2085.79	0.24
2086.12	0.28
2086.44	0.64
2086.77	0.84
2087.09	0.84
2087.42	1.04
2087.74	1.24
2088.07	0.96
2088.39	0.64
2088.72	0.72
2089.04	0.6
2089.37	0.52
2089.69	0.72
2090.02	0.72
2090.34	0.48
2090.67	1
2090.99	-0.96
2091.32	-0.68
2091.64	-0.68
2091.97	-0.28
2092.29	-0.56
2092.62	1.76
2092.94	1.4
2093.26	1.4
2093.59	1.6
2093.91	0.28
2094.24	-0.08
2094.56	-0.24
2094.89	0.4
2095.21	0.44
2095.54	1.4
2095.86	1.16
2096.19	1.4
2096.51	1.12
2096.84	0.68
2097.16	1.04
2097.48	1.28
2097.81	1
2098.13	0.64
2098.46	0.52
2098.78	0.16
2099.11	-0.04
2099.43	0.08
2099.75	0.08
2100.08	0.76
2100.4	0.88
2100.73	0.84
2101.05	1.24
2101.38	1.32
2101.7	0.72
2102.02	0.6
2102.35	0.6
2102.67	0.16
2103	0.24
2103.32	0.4
2103.64	0.44
2103.97	0.92
2104.29	1.04
2104.62	0.88
2104.94	0.96
2105.26	0.4
2105.59	-0.04
2105.91	-0.08
2106.23	0.28
2106.56	0.04
2106.88	0.72
2107.21	0.76
2107.53	0.88
2107.85	0.52
2108.18	0.88
2108.5	0.76
2108.82	0.68
2109.15	0.84
2109.47	1.08
2109.79	0.72
2110.12	0.68
2110.44	0.92
2110.76	0.76
2111.09	0.52
2111.41	0.52
2111.73	0.52
2112.06	0.32
2112.38	0.16
2112.7	-0.44
2113.03	-0.28
2113.35	-0.2
2113.67	-0.24
2114	-0.36
2114.32	0.28
2114.64	0.24
2114.97	0.16
2115.29	0.16
2115.61	0.16
2115.94	0.12
2116.26	0.32
2116.58	0.36
2116.91	-0.32
2117.23	0.16
2117.55	0.4
2117.87	0.16
2118.2	0.12
2118.52	0.92
2118.84	0.44
2119.17	0.2
2119.49	0.12
2119.81	0.24
2120.13	0.36
2120.46	0.36
2120.78	-0.64
2121.1	-0.64
2121.42	-0.76
2121.75	-1
2122.07	-1
2122.39	0.08
2122.72	0.08
2123.04	0.08
2123.36	0.16
2123.68	0.28
2124.01	0.36
2124.33	0.68
2124.65	0.8
2124.97	0.72
2125.29	0.68
2125.62	0.52
2125.94	0.2
2126.26	0.2
2126.58	0.2
2126.91	-0.72
2127.23	-0.72
2127.55	-0.72
2127.87	-0.84
2128.2	-0.84
2128.52	0.08
2128.84	0.08
2129.16	0.32
2129.48	0.32
2129.81	0.44
2130.13	0.48
2130.45	0.56
2130.77	0.32
2131.09	0.48
2131.42	0.52
2131.74	0.64
2132.06	0.64
2132.38	0.72
2132.7	0.72
2133.02	0.8
2133.35	0.68
2133.67	0.68
2133.99	0.6
2134.31	-0.16
2134.63	-0.32
2134.96	-0.2
2135.28	-0.12
2135.6	0.04
2135.92	0.92
2136.24	0.84
2136.56	0.6
2136.88	0.44
2137.21	0.28
2137.53	0
2137.85	0.36
2138.17	-0.24
2138.49	-0.24
2138.81	-0.24
2139.13	-0.24
2139.46	-0.56
2139.78	0.04
2140.1	0.08
2140.42	0.08
2140.74	0.24
2141.06	0.2
2141.38	0.2
2141.7	0.16
2142.03	0.16
2142.35	0.16
2142.67	0.16
2142.99	0.44
2143.31	0.6
2143.63	0.6
2143.95	0.48
2144.27	0.48
2144.59	0.32
2144.91	0.16
2145.24	0.24
2145.56	0.32
2145.88	0.32
2146.2	0.2
2146.52	0.24
2146.84	0.24
2147.16	0.12
2147.48	0.12
2147.8	0.12
2148.12	0.08
2148.44	0.08
2148.76	0.32
2149.08	0.32
2149.41	0.32
2149.73	0.32
2150.05	0.24
2150.37	0.24
2150.69	0.24
2151.01	0.24
2151.33	0.24
2151.65	0.36
2151.97	0.12
2152.29	0.12
2152.61	-0.28
2152.93	-0.24
2153.25	-0.24
2153.57	-0.24
2153.89	-0.24
2154.21	-0.24
2154.53	-0.28
2154.85	-0.4
2155.17	-0.32
2155.49	-0.52
2155.81	-0.08
2156.13	-0.04
2156.45	-0.04
2156.77	-0.12
2157.09	0.28
2157.41	0.24
2157.73	0.2
2158.05	0.24
2158.37	0.24
2158.69	0.16
2159.01	0.16
2159.33	0.36
2159.65	0.36
2159.97	0.36
2160.29	0.4
2160.61	0.48
2160.93	0.28
2161.25	0.24
2161.57	0.32
2161.89	0.16
2162.21	0.08
2162.53	0.08
2162.85	-0.4
2163.17	-0.48
2163.49	-0.4
2163.81	-0.24
2164.13	-0.24
2164.45	-0.2
2164.77	0.08
2165.08	-2.88669e-17
2165.4	0.04
2165.72	0.16
2166.04	0.6
2166.36	0.48
2166.68	0.48
2167	0.28
2167.32	0.24
2167.64	0.6
2167.96	0.44
2168.28	0.68
2168.6	0.68
2168.92	0.64
2169.24	0.6
2169.55	0.6
2169.87	0.44
2170.19	0.56
2170.51	0.56
2170.83	0.48
2171.15	0.48
2171.47	0.4
2171.79	0.28
2172.11	0.24
2172.43	0
2172.74	0.32
2173.06	0.6
2173.38	0.6
2173.7	0.6
2174.02	0.6
2174.34	0.32
2174.66	0.04
2174.98	0.04
2175.29	0.04
2175.61	0.04
2175.93	0
2176.25	0.12
2176.57	0.44
2176.89	0.44
2177.21	0.44
2177.52	0.44
2177.84	0.32
2178.16	0
2178.48	0.16
2178.8	0.28
2179.12	0.28
2179.43	0.44
2179.75	-0.56
2180.07	-0.72
2180.39	-0.76
2180.71	-0.6
2181.03	-0.76
2181.34	0.36
2181.66	0.64
2181.98	0.56
2182.3	0.4
2182.62	0.4
2182.93	-2.66443e-17
2183.25	-0.28
2183.57	-0.28
2183.89	-0.28
2184.21	-0.28
2184.52	0
2184.84	0
2185.16	0
2185.48	0.04
2185.8	0.2
2186.11	0.2
2186.43	0.2
2186.75	0.2
2187.07	-0.24
2187.39	-1.2
2187.7	-0.92
2188.02	-1.52
2188.34	-1.52
2188.66	-1.12
2188.97	-0.16
2189.29	-0.16
2189.61	0.44
2189.93	0.84
2190.24	0.84
2190.56	0.68
2190.88	0.56
2191.2	0.76
2191.51	0.36
2191.83	0.4
2192.15	1
2192.47	0.84
2192.78	0.64
2193.1	0.64
2193.42	0.6
2193.74	0
2194.05	0
2194.37	0
2194.69	0
2195	-0.4
2195.32	-0.4
2195.64	-0.4
2195.96	-0.4
2196.27	-0.4
2196.59	-0.6
2196.91	-0.6
2197.22	-0.44
2197.54	-0.44
2197.86	-0.4
2198.18	0.28
2198.49	0.28
2198.81	0.12
2199.13	0.16
2199.44	0.16
2199.76	0.08
2200.08	0.08
2200.39	0.12
2200.71	0.16
2201.03	0.24
2201.34	0.28
2201.66	0.28
2201.98	0.28
2202.29	0.2
2202.61	0.08
2202.93	0.04
2203.24	0.04
2203.56	0
2203.88	0
2204.19	0
2204.51	0
2204.83	0
2205.14	0.12
2205.46	0.12
2205.78	0.44
2206.09	0.44
2206.41	0.24
2206.72	-0.08
2207.04	0.04
2207.36	-0.56
2207.67	-0.32
2207.99	-0.12
2208.31	0.08
2208.62	-0.04
2208.94	0.24
2209.25	0
2209.57	0
2209.89	0.08
2210.2	0.08
2210.52	0.36
2210.83	0.56
2211.15	0.56
2211.47	0.48
2211.78	0.8
2212.1	0.36
2212.41	0.24
2212.73	0.48
2213.05	0.64
2213.36	0.36
2213.68	0.52
2213.99	0.44
2214.31	0.2
2214.62	0.04
2214.94	0.12
2215.26	0.2
2215.57	0.2
2215.89	0.2
2216.2	0.2
2216.52	0.08
2216.83	0.6
2217.15	0.6
2217.46	0.72
2217.78	0.72
2218.1	0.56
2218.41	-0.04
2218.73	-0.04
2219.04	0.12
2219.36	0.12
2219.67	0.28
2219.99	0.36
2220.3	0.4
2220.62	0.52
2220.93	0.52
2221.25	0.52
2221.56	0.56
2221.88	0.52
2222.19	0.12
2222.51	0.4
2222.82	-1
2223.14	-1.12
2223.45	-1.12
2223.77	-1.12
2224.08	-1.4
2224.4	0.12
2224.71	0.12
2225.03	0.16
2225.34	0.36
2225.66	-1.04
2225.97	-1.08
2226.29	-1.08
2226.6	-1.12
2226.92	-1.32
2227.23	0.32
2227.55	0.24
2227.86	0.24
2228.18	0.24
2228.49	0.28
2228.81	0.04
2229.12	0.24
2229.44	0.32
2229.75	0.36
2230.07	0.32
2230.38	0.32
2230.69	0.12
2231.01	0.04
2231.32	0
2231.64	0
2231.95	0
2232.27	0.2
2232.58	0.2
2232.9	0.32
2233.21	0.36
2233.52	0.36
2233.84	0.16
2234.15	0.2
2234.47	0.44
2234.78	0.4
2235.1	0.4
2235.41	0.6
2235.72	0.56
2236.04	0.36
2236.35	0.4
2236.67	-0.2
2236.98	-0.4
2237.29	-0.4
2237.61	-0.32
2237.92	-0.36
2238.24	0.24
2238.55	0.44
2238.86	0.44
2239.18	0.2
2239.49	-0.6
2239.8	-0.6
2240.12	-0.8
2240.43	-0.8
2240.75	-0.8
2241.06	0
2241.37	0
2241.69	0.04
2242	0.04
2242.31	0.12
2242.63	0.2
2242.94	0.2
2243.26	-0.44
2243.57	-0.44
2243.88	-0.48
2244.2	-0.28
2244.51	-0.28
2244.82	0.32
2245.14	0.32
2245.45	0.28
2245.76	0
2246.08	0
2246.39	0
2246.7	0.16
2247.02	0.2
2247.33	0.32
2247.64	0.32
2247.96	0.56
2248.27	0.48
2248.58	-0.56
2248.9	-0.68
2249.21	-0.64
2249.52	-0.88
2249.83	-0.96
2250.15	0.36
2250.46	0.4
2250.77	0.36
2251.09	0.36
2251.4	0.36
2251.71	0.04
2252.03	0
2252.34	0
2252.65	0.08
2252.96	0.08
2253.28	0.08
2253.59	0.08
2253.9	0.16
2254.21	0.08
2254.53	0.08
2254.84	-0.2
2255.15	-0.12
2255.47	-0.16
2255.78	-0.12
2256.09	-0.12
2256.4	0.24
2256.72	0.24
2257.03	0.2
2257.34	0.16
2257.65	0.16
2257.97	0.08
2258.28	0
2258.59	0.24
2258.9	0.24
2259.22	0.24
2259.53	0.28
2259.84	0.28
2260.15	0.04
2260.46	0.04
2260.78	0.04
2261.09	0
2261.4	0
2261.71	0.12
2262.03	0.12
2262.34	0.12
2262.65	0.12
2262.96	0.12
2263.27	0.16
2263.59	0.16
2263.9	0.16
2264.21	0.16
2264.52	0.64
2264.83	0.48
2265.15	0.48
2265.46	0.48
2265.77	0.48
2266.08	0.16
2266.39	0.16
2266.7	0.16
2267.02	0.16
2267.33	-0.16
2267.64	-0.32
2267.95	-0.28
2268.26	-0.28
2268.57	-0.2
2268.89	0.12
2269.2	0.28
2269.51	0.36
2269.82	0.4
2270.13	0.32
2270.44	0.32
2270.76	-0.24
2271.07	-0.36
2271.38	-1
2271.69	-1
2272	-0.72
2272.31	-0.52
2272.62	-1.32
2272.93	-0.72
2273.25	-0.72
2273.56	-1
2273.87	-0.8
2274.18	0
2274.49	0.04
2274.8	0.04
2275.11	0.04
2275.42	0.04
2275.74	0.04
2276.05	0.04
2276.36	0.04
2276.67	0.04
2276.98	0.04
2277.29	0.04
2277.6	0.08
2277.91	0.08
2278.22	-0.24
2278.53	-0.24
2278.85	-0.2
2279.16	-1.28
2279.47	-1.28
2279.78	-0.92
2280.09	-0.88
2280.4	-0.92
2280.71	0.08
2281.02	0.16
2281.33	0.12
2281.64	0.08
2281.95	0.08
2282.26	0.08
2282.57	0.16
2282.88	0.16
2283.19	0.16
2283.5	0.16
2283.82	0.16
2284.13	0.32
2284.44	0.32
2284.75	-0.16
2285.06	-0.12
2285.37	-0.12
2285.68	-0.44
2285.99	-0.44
2286.3	0.04
2286.61	0
2286.92	0
2287.23	0.04
2287.54	0.04
2287.85	0.04
2288.16	0.52
2288.47	0.52
2288.78	0.48
2289.09	0.48
2289.4	0.48
2289.71	0
2290.02	0
2290.33	0
2290.64	0
2290.95	-0.2
2291.26	-0.2
2291.57	-0.2
2291.88	-0.52
2292.19	-0.4
2292.5	-0.2
2292.81	-0.2
2293.12	-0.2
2293.43	0.12
2293.74	0
2294.05	0
2294.36	0
2294.67	0
2294.98	0
2295.29	0
2295.6	0
2295.91	0
2296.21	0
2296.52	0
2296.83	0
2297.14	0
2297.45	0
2297.76	0
2298.07	0
2298.38	0
2298.69	0
2299	0
2299.31	0
2299.62	0
2299.93	0
2300.24	0
2300.55	0
2300.85	0
2301.16	0
2301.47	0
2301.78	0
2302.09	0
2302.4	0
2302.71	0
2303.02	0
2303.33	0
2303.64	0
2303.94	0
2304.25	0
2304.56	0
2304.87	0
2305.18	0
2305.49	0
2305.8	0
2306.11	0
2306.42	0
2306.72	0
2307.03	0
2307.34	0
2307.65	0
2307.96	0
2308.27	0
2308.58	0
2308.88	0
2309.19	0
2309.5	0
2309.81	0
2310.12	0
2310.43	0
2310.74	0
2311.04	0
2311.35	0
2311.66	0
2311.97	0
2312.28	0
2312.59	0
2312.89	0
2313.2	0
2313.51	0
2313.82	0
2314.13	0
2314.43	0
2314.74	0
2315.05	0
2315.36	0
2315.67	0
2315.97	0
2316.28	0
2316.59	0
2316.9	0
2317.21	0
2317.51	0
2317.82	0
2318.13	0
2318.44	0
2318.75	0
2319.05	0
2319.36	0
2319.67	0
2319.98	0
2320.28	0
2320.59	0
2320.9	0
2321.21	0
2321.51	0
2321.82	0
2322.13	0
2322.44	0
2322.74	0
2323.05	0
2323.36	0
2323.67	0
2323.97	0
2324.28	0
2324.59	0
2324.9	0
2325.2	0
2325.51	0
2325.82	0
2326.13	0
2326.43	0
2326.74	0
2327.05	0
2327.35	0
2327.66	0
2327.97	0
2328.27	0
2328.58	0
2328.89	0
2329.2	0
2329.5	0
2329.81	0
2330.12	0
2330.42	0
2330.73	0
2331.04	0
2331.34	0
2331.65	0
2331.96	0
2332.26	0
2332.57	0
2332.88	0
2333.18	0
2333.49	0
2333.8	0
2334.1	0
2334.41	0
2334.72	0
2335.02	0
2335.33	0
2335.64	0
2335.94	0
2336.25	0
2336.56	0
2336.86	0
2337.17	0
2337.48	0
2337.78	0
2338.09	0
2338.39	0
2338.7	0
2339.01	0
2339.31	0
2339.62	0
2339.93	0
2340.23	0
2340.54	0
2340.84	0
2341.15	0
2341.46	0
2341.76	0
2342.07	0
2342.37	0
2342.68	0
2342.99	0
2343.29	0
2343.6	0
2343.9	0
2344.21	0
2344.51	0
2344.82	0
2345.13	0
2345.43	0
2345.74	0
2346.04	0
2346.35	0
2346.65	0
2346.96	0
2347.27	0
2347.57	0
2347.88	0
2348.18	0
2348.49	0
2348.79	0
2349.1	0
2349.4	0
2349.71	0
2350.01	0
2350.32	0
2350.63	0
2350.93	0
2351.24	0
2351.54	0
2351.85	0
2352.15	0
2352.46	0
2352.76	0
2353.07	0
2353.37	0
2353.68	0
2353.98	0
2354.29	0
2354.59	0
2354.9	0
2355.2	0
2355.51	0
2355.81	0
2356.12	0
2356.42	0
2356.73	0
2357.03	0
2357.34	0
2357.64	0
2357.95	0
2358.25	0
2358.55	0
2358.86	0
2359.16	0
2359.47	0
2359.77	0
2360.08	0
2360.38	0
2360.69	0
2360.99	0
2361.3	0
2361.6	0
2361.9	0
2362.21	0
2362.51	0
2362.82	0
2363.12	0
2363.43	0
2363.73	0
2364.04	0
2364.34	0
2364.64	0
2364.95	0
2365.25	0
2365.56	0
2365.86	0
2366.16	0
2366.47	0
2366.77	0
2367.08	0
2367.38	0
2367.68	0
2367.99	0
2368.29	0
2368.6	0
2368.9	0
2369.2	0
2369.51	0
2369.81	0
2370.12	0
2370.42	0
2370.72	0
2371.03	0
2371.33	0
2371.63	0
2371.94	0
2372.24	0
2372.55	0
2372.85	0
2373.15	0
2373.46	0
2373.76	0
2374.06	0
2374.37	0
2374.67	0
2374.97	0
2375.28	0
2375.58	0
2375.88	0
2376.19	0
2376.49	0
2376.79	0
2377.1	0
2377.4	0
2377.7	0
2378.01	0
2378.31	0
2378.61	0
2378.92	0
2379.22	0
2379.52	0
2379.82	0
2380.13	0
2380.43	0
2380.73	0
2381.04	0
2381.34	0
2381.64	0
2381.95	0
2382.25	0
2382.55	0
2382.85	0
2383.16	0
2383.46	0
2383.76	0
2384.06	0
2384.37	0
2384.67	0
2384.97	0
2385.28	0
2385.58	0
2385.88	0
2386.18	0
2386.49	0
2386.79	0
2387.09	0
2387.39	0
2387.69	0
2388	0
2388.3	0
2388.6	0
2388.9	0
2389.21	0
2389.51	0
2389.81	0
2390.11	0
2390.42	0
2390.72	0
2391.02	0
2391.32	0
2391.62	0
2391.93	0
2392.23	0
2392.53	0
2392.83	0
2393.13	0
2393.44	0
2393.74	0
2394.04	0
2394.34	0
2394.64	0
2394.95	0
2395.25	0
2395.55	0
2395.85	0
2396.15	0
2396.45	0
2396.76	0
2397.06	0
2397.36	0
2397.66	0
2397.96	0
2398.26	0
2398.57	0
2398.87	0
2399.17	0
2399.47	0
2399.77	0
2400.07	0
2400.37	0
2400.68	0
2400.98	0
2401.28	0
2401.58	0
2401.88	0
2402.18	0
2402.48	0
2402.79	0
2403.09	0
2403.39	0
2403.69	0
2403.99	0
2404.29	0
2404.59	0
2404.89	0
2405.19	0
2405.5	0
2405.8	0
2406.1	0
2406.4	0
2406.7	0
2407	0
2407.3	0
2407.6	0
2407.9	0
2408.2	0
2408.5	0
2408.8	0
2409.11	0
2409.41	0
2409.71	0
2410.01	0
2410.31	0
2410.61	0
2410.91	0
2411.21	0
2411.51	0
2411.81	0
2412.11	0
2412.41	0
2412.71	0
2413.01	0
2413.31	0
2413.61	0
2413.91	0
2414.21	0
2414.51	0
2414.81	0
2415.12	0
2415.42	0
2415.72	0
2416.02	0
2416.32	0
2416.62	0
2416.92	0
2417.22	0
2417.52	0
2417.82	0
2418.12	0
2418.42	0
2418.72	0
2419.02	0
2419.32	0
2419.62	0
2419.92	0
2420.22	0
2420.52	0
2420.82	0
2421.12	0
2421.42	0
2421.71	0
2422.01	0
2422.31	0
2422.61	0
2422.91	0
2423.21	0
2423.51	0
2423.81	0
2424.11	0
2424.41	0
2424.71	0
2425.01	0
2425.31	0
2425.61	0
2425.91	0
2426.21	0
2426.51	0
2426.81	0
2427.11	0
2427.41	0
2427.7	0
2428	0
2428.3	0
2428.6	0
2428.9	0
2429.2	0
2429.5	0
2429.8	0
2430.1	0
2430.4	0
2430.7	0
2430.99	0
2431.29	0
2431.59	0
2431.89	0
2432.19	0
2432.49	0
2432.79	0
2433.09	0
2433.39	0
2433.68	0
2433.98	0
2434.28	0
2434.58	0
2434.88	0
2435.18	0
2435.48	0
2435.78	0
2436.07	0
2436.37	0
2436.67	0
2436.97	0
2437.27	0
2437.57	0
2437.86	0
2438.16	0
2438.46	0
2438.76	0
2439.06	0
2439.36	0
2439.66	0
2439.95	0
2440.25	0
2440.55	0
2440.85	0
2441.15	0
2441.44	0
2441.74	0
2442.04	0
2442.34	0
2442.64	0
2442.93	0
2443.23	0
2443.53	0
2443.83	0
2444.13	0
2444.42	0
2444.72	0
2445.02	0
2445.32	0
2445.62	0
2445.91	0
2446.21	0
2446.51	0
2446.81	0
2447.1	0
2447.4	0
2447.7	0
2448	0
2448.3	0
2448.59	0
2448.89	0
2449.19	0
2449.49	0
2449.78	0
2450.08	0
2450.38	0
2450.68	0
2450.97	0
2451.27	0
2451.57	0
2451.87	0
2452.16	0
2452.46	0
2452.76	0
2453.05	0
2453.35	0
2453.65	0
2453.95	0
2454.24	0
2454.54	0
2454.84	0
2455.13	0
2455.43	0
2455.73	0
2456.03	0
2456.32	0
2456.62	0
2456.92	0
2457.21	0
2457.51	0
2457.81	0
2458.1	0
2458.4	0
2458.7	0
2458.99	0
2459.29	0
2459.59	0
2459.88	0
2460.18	0
2460.48	0
2460.77	0
2461.07	0
2461.37	0
2461.66	0
2461.96	0
2462.26	0
2462.55	0
2462.85	0
2463.15	0
2463.44	0
2463.74	0
2464.04	0
2464.33	0
2464.63	0
2464.92	0
2465.22	0
2465.52	0
2465.81	0
2466.11	0
2466.41	0
2466.7	0
2467	0
2467.29	0
2467.59	0
2467.89	0
2468.18	0
2468.48	0
2468.77	0
2469.07	0
2469.37	0
2469.66	0
2469.96	0
2470.25	0
2470.55	0
2470.84	0
2471.14	0
2471.44	0
2471.73	0
2472.03	0
2472.32	0
2472.62	0
2472.91	0
2473.21	0
2473.51	0
2473.8	0
2474.1	0
2474.39	0
2474.69	0
2474.98	0
2475.28	0
2475.57	0
2475.87	0
2476.17	0
2476.46	0
2476.76	0
2477.05	0
2477.35	0
2477.64	0
2477.94	0
2478.23	0
2478.53	0
2478.82	0
2479.12	0
2479.41	0
2479.71	0
2480	0
2480.3	0
2480.59	0
2480.89	0
2481.18	0
2481.48	0
2481.77	0
2482.07	0
2482.36	0
2482.66	0
2482.95	0
2483.25	0
2483.54	0
2483.84	0
2484.13	0
2484.43	0
2484.72	0
2485.02	0
2485.31	0
2485.6	0
2485.9	0
2486.19	0
2486.49	0
2486.78	0
2487.08	0
2487.37	0
2487.67	0
2487.96	0
2488.26	0
2488.55	0
2488.84	0
2489.14	0
2489.43	0
2489.73	0
2490.02	0
2490.32	0
2490.61	0
2490.9	0
2491.2	0
2491.49	0
2491.79	0
2492.08	0
2492.37	0
2492.67	0
2492.96	0
2493.26	0
2493.55	0
2493.84	0
2494.14	0
2494.43	0
2494.73	0
2495.02	0
2495.31	0
2495.61	0
2495.9	0
2496.2	0
2496.49	0
2496.78	0
2497.08	0
2497.37	0
2497.66	0
2497.96	0
2498.25	0
2498.54	0
2498.84	0
2499.13	0
2499.43	0
2499.72	0
2500.01	0
2500.31	0
2500.6	0
2500.89	0
2501.19	0
2501.48	0
2501.77	0
2502.07	0
2502.36	0
2502.65	0
2502.95	0
2503.24	0
2503.53	0
2503.82	0
2504.12	0
2504.41	0
2504.7	0
2505	0
2505.29	0
2505.58	0
2505.88	0
2506.17	0
2506.46	0
2506.76	0
2507.05	0
2507.34	0
2507.63	0
2507.93	0
2508.22	0
2508.51	0
2508.8	0
2509.1	0
2509.39	0
2509.68	0
2509.98	0
2510.27	0
2510.56	0
2510.85	0
2511.15	0
2511.44	0
2511.73	0
2512.02	0
2512.32	0
2512.61	0
2512.9	0
2513.19	0
2513.49	0
2513.78	0
2514.07	0
2514.36	0
2514.65	0
2514.95	0
2515.24	0
2515.53	0
2515.82	0
2516.12	0
2516.41	0
2516.7	0
2516.99	0
2517.28	0
2517.58	0
2517.87	0
2518.16	0
2518.45	0
2518.74	0
2519.04	0
2519.33	0
2519.62	0
2519.91	0
2520.2	0
2520.5	0
2520.79	0
2521.08	0
2521.37	0
2521.66	0
2521.95	0
2522.25	0
2522.54	0
2522.83	0
2523.12	0
2523.41	0
2523.7	0
2523.99	0
2524.29	0
2524.58	0
2524.87	0
2525.16	0
2525.45	0
2525.74	0
2526.03	0
2526.33	0
2526.62	0
2526.91	0
2527.2	0
2527.49	0
2527.78	0
2528.07	0
2528.36	0
2528.66	0
2528.95	0
2529.24	0
2529.53	0
2529.82	0
2530.11	0
2530.4	0
2530.69	0
2530.98	0
2531.27	0
2531.57	0
2531.86	0
2532.15	0
2532.44	0
2532.73	0
2533.02	0
2533.31	0
2533.6	0
2533.89	0
2534.18	0
2534.47	0
2534.76	0
2535.05	0
2535.35	0
2535.64	0
2535.93	0
2536.22	0
2536.51	0
2536.8	0
2537.09	0
2537.38	0
2537.67	0
2537.96	0
2538.25	0
2538.54	0
2538.83	0
2539.12	0
2539.41	0
2539.7	0
2539.99	0
2540.28	0
2540.57	0
2540.86	0
2541.15	0
2541.44	0
2541.73	0
2542.02	0
2542.31	0
2542.6	0
2542.89	0
2543.18	0
2543.47	0
2543.76	0
2544.05	0
2544.34	0
2544.63	0
2544.92	0
2545.21	0
2545.5	0
2545.79	0
2546.08	0
2546.37	0
2546.66	0
2546.95	0
2547.24	0
2547.53	0
2547.82	0
2548.11	0
2548.4	0
2548.69	0
2548.98	0
2549.27	0
2549.55	0
2549.84	0
2550.13	0
2550.42	0
2550.71	0
2551	0
2551.29	0
2551.58	0
2551.87	0
2552.16	0
2552.45	0
2552.74	0
2553.03	0
2553.31	0
2553.6	0
2553.89	0
2554.18	0
2554.47	0
2554.76	0
2555.05	0
2555.34	0
2555.63	0
2555.92	0
2556.2	0
2556.49	0
2556.78	0
2557.07	0
2557.36	0
2557.65	0
2557.94	0
2558.23	0
2558.51	0
2558.8	0
2559.09	0
2559.38	0
2559.67	0
2559.96	0
2560.25	0
2560.53	0
2560.82	0
2561.11	0
2561.4	0
2561.69	0
2561.98	0
2562.27	0
2562.55	0
2562.84	0
2563.13	0
2563.42	0
2563.71	0
2564	0
2564.28	0
2564.57	0
2564.86	0
2565.15	0
2565.44	0
2565.72	0
2566.01	0
2566.3	0
2566.59	0
2566.88	0
2567.16	0
2567.45	0
2567.74	0
2568.03	0
2568.32	0
2568.6	0
2568.89	0
2569.18	0
2569.47	0
2569.75	0

