Source: Spectrum Viewer

Chart: Pulse Spectrum

Series: 
Wavelength (nm)	S (a.u.)
1179.9	0
1180.29	0
1180.68	0
1181.06	0
1181.45	0
1181.83	0
1182.22	0
1182.6	0
1182.99	0
1183.38	0
1183.76	0
1184.15	0
1184.53	0
1184.92	0
1185.3	0
1185.69	0
1186.07	0
1186.46	0
1186.85	0
1187.23	0
1187.62	0
1188	0
1188.39	0
1188.77	0
1189.16	0
1189.54	0
1189.93	0
1190.31	0
1190.7	0
1191.08	0
1191.47	0
1191.85	0
1192.24	0
1192.62	0
1193.01	0
1193.39	0
1193.78	0
1194.16	0
1194.55	0
1194.93	0
1195.32	0
1195.7	0
1196.09	0
1196.47	0
1196.86	0
1197.24	0
1197.63	0
1198.01	0
1198.4	0
1198.78	0
1199.16	0
1199.55	0
1199.93	0
1200.32	0
1200.7	0
1201.09	0
1201.47	0
1201.86	0
1202.24	0
1202.63	0
1203.01	0
1203.39	0
1203.78	0
1204.16	0
1204.55	0
1204.93	0
1205.32	0
1205.7	0
1206.08	0
1206.47	0
1206.85	0
1207.24	0
1207.62	0
1208	0
1208.39	0
1208.77	0
1209.16	0
1209.54	0
1209.92	0
1210.31	0
1210.69	0
1211.08	0
1211.46	0
1211.84	0
1212.23	0
1212.61	0
1213	0
1213.38	0
1213.76	0
1214.15	0
1214.53	0
1214.91	0
1215.3	0
1215.68	0
1216.06	0
1216.45	0
1216.83	0
1217.22	0
1217.6	0
1217.98	0
1218.37	0
1218.75	0
1219.13	0
1219.52	0
1219.9	0
1220.28	0
1220.67	0
1221.05	0
1221.43	0
1221.82	0
1222.2	0
1222.58	0
1222.97	0
1223.35	0
1223.73	0
1224.11	0
1224.5	0
1224.88	0
1225.26	0
1225.65	0
1226.03	0
1226.41	0
1226.8	0
1227.18	0
1227.56	0
1227.94	0
1228.33	0
1228.71	0
1229.09	0
1229.47	0
1229.86	0
1230.24	0
1230.62	0
1231.01	0
1231.39	0
1231.77	0
1232.15	0
1232.54	0
1232.92	0
1233.3	0
1233.68	0
1234.07	0
1234.45	0
1234.83	0
1235.21	0
1235.6	0
1235.98	0
1236.36	0
1236.74	0
1237.12	0
1237.51	0
1237.89	0
1238.27	0
1238.65	0
1239.04	0
1239.42	0
1239.8	0
1240.18	0
1240.56	0
1240.95	0
1241.33	0
1241.71	0
1242.09	0
1242.47	0
1242.86	0
1243.24	0
1243.62	0
1244	0
1244.38	0
1244.77	0
1245.15	0
1245.53	0
1245.91	0
1246.29	0
1246.67	0
1247.06	0
1247.44	0
1247.82	0
1248.2	0
1248.58	0
1248.96	0
1249.34	0
1249.73	0
1250.11	0
1250.49	0
1250.87	0
1251.25	0
1251.63	0
1252.01	0
1252.4	0
1252.78	0
1253.16	0
1253.54	0
1253.92	0
1254.3	0
1254.68	0
1255.06	0
1255.45	0
1255.83	0
1256.21	0
1256.59	0
1256.97	0
1257.35	0
1257.73	0
1258.11	0
1258.49	0
1258.87	0
1259.26	0
1259.64	0
1260.02	0
1260.4	0
1260.78	0
1261.16	0
1261.54	0
1261.92	0
1262.3	0
1262.68	0
1263.06	0
1263.44	0
1263.82	0
1264.21	0
1264.59	0
1264.97	0
1265.35	0
1265.73	0
1266.11	0
1266.49	0
1266.87	0
1267.25	0
1267.63	0
1268.01	0
1268.39	0
1268.77	0
1269.15	0
1269.53	0
1269.91	0
1270.29	0
1270.67	0
1271.05	0
1271.43	0
1271.81	0
1272.19	0
1272.57	0
1272.95	0
1273.33	0
1273.71	0
1274.09	0
1274.47	0
1274.85	0
1275.23	0
1275.61	0
1275.99	0
1276.37	0
1276.75	0
1277.13	0
1277.51	0
1277.89	0
1278.27	0
1278.65	0
1279.03	0
1279.41	0
1279.79	0
1280.17	0
1280.55	0
1280.93	0
1281.31	0
1281.69	0
1282.07	0
1282.45	0
1282.82	0
1283.2	0
1283.58	0
1283.96	0
1284.34	0
1284.72	0
1285.1	0
1285.48	0
1285.86	0
1286.24	0
1286.62	0
1287	0
1287.38	0
1287.75	0
1288.13	0
1288.51	0
1288.89	0
1289.27	0
1289.65	0
1290.03	0
1290.41	0
1290.79	0
1291.17	0
1291.54	0
1291.92	0
1292.3	0
1292.68	0
1293.06	0
1293.44	0
1293.82	0
1294.2	0
1294.57	0
1294.95	0
1295.33	0
1295.71	0
1296.09	0
1296.47	0
1296.85	0
1297.22	0
1297.6	0
1297.98	0
1298.36	0
1298.74	0
1299.12	0
1299.5	0
1299.87	0
1300.25	0
1300.63	0
1301.01	0
1301.39	0
1301.77	0
1302.14	0
1302.52	0
1302.9	0
1303.28	0
1303.66	0
1304.03	0
1304.41	0
1304.79	0
1305.17	0
1305.55	0
1305.92	0
1306.3	0
1306.68	0
1307.06	0
1307.44	0
1307.81	0
1308.19	0
1308.57	0
1308.95	0
1309.32	0
1309.7	0
1310.08	0
1310.46	0
1310.84	0
1311.21	0
1311.59	0
1311.97	0
1312.35	0
1312.72	0
1313.1	0
1313.48	0
1313.86	0
1314.23	0
1314.61	0
1314.99	0
1315.37	0
1315.74	0
1316.12	0
1316.5	0
1316.87	0
1317.25	0
1317.63	0
1318.01	0
1318.38	0
1318.76	0
1319.14	0
1319.52	0
1319.89	0
1320.27	0
1320.65	0
1321.02	0
1321.4	0
1321.78	0
1322.15	0
1322.53	0
1322.91	0
1323.29	0
1323.66	0
1324.04	0
1324.42	0
1324.79	0
1325.17	0
1325.55	0
1325.92	0
1326.3	0
1326.68	0
1327.05	0
1327.43	0
1327.81	0
1328.18	0
1328.56	0
1328.94	0
1329.31	0
1329.69	0
1330.06	0
1330.44	0
1330.82	0
1331.19	0
1331.57	0
1331.95	0
1332.32	0
1332.7	0
1333.08	0
1333.45	0
1333.83	0
1334.2	0
1334.58	0
1334.96	0
1335.33	0
1335.71	0
1336.08	0
1336.46	0
1336.84	0
1337.21	0
1337.59	0
1337.96	0
1338.34	0
1338.72	0
1339.09	0
1339.47	0
1339.84	0
1340.22	0
1340.6	0
1340.97	0
1341.35	0
1341.72	0
1342.1	0
1342.47	0
1342.85	0
1343.23	0
1343.6	0
1343.98	0
1344.35	0
1344.73	0
1345.1	0
1345.48	0
1345.85	0
1346.23	0
1346.61	0
1346.98	0
1347.36	0
1347.73	0
1348.11	0
1348.48	0
1348.86	0
1349.23	0
1349.61	0
1349.98	0
1350.36	0
1350.73	0
1351.11	0
1351.48	0
1351.86	0
1352.23	0
1352.61	0
1352.98	0
1353.36	0
1353.73	0
1354.11	0
1354.48	0
1354.86	0
1355.23	0
1355.61	0
1355.98	0
1356.36	0
1356.73	0
1357.11	0
1357.48	0
1357.86	0
1358.23	0
1358.61	0
1358.98	0
1359.35	0
1359.73	0
1360.1	0
1360.48	0
1360.85	0
1361.23	0
1361.6	0
1361.98	0
1362.35	0
1362.72	0
1363.1	0
1363.47	0
1363.85	0
1364.22	0
1364.6	0
1364.97	0
1365.34	0
1365.72	0
1366.09	0
1366.47	0
1366.84	0
1367.22	0
1367.59	0
1367.96	0
1368.34	0
1368.71	0
1369.09	0
1369.46	-1
1369.83	-1
1370.21	-1
1370.58	-0.96
1370.96	-0.6
1371.33	0.4
1371.7	0.4
1372.08	0.44
1372.45	0.4
1372.82	0.04
1373.2	0.08
1373.57	0.16
1373.95	0.12
1374.32	0.12
1374.69	0.12
1375.07	0.08
1375.44	0
1375.81	0
1376.19	0.04
1376.56	0.04
1376.93	0.16
1377.31	0.16
1377.68	0.16
1378.05	0.16
1378.43	0.2
1378.8	0.08
1379.17	0.24
1379.55	0.24
1379.92	0.28
1380.29	0.24
1380.67	0.24
1381.04	0.2
1381.41	0.6
1381.79	0.64
1382.16	0.64
1382.53	0.64
1382.91	-0.48
1383.28	-0.88
1383.65	-0.96
1384.03	-0.6
1384.4	-0.56
1384.77	0.44
1385.14	0.56
1385.52	0.52
1385.89	0.16
1386.26	0.12
1386.64	0.12
1387.01	0
1387.38	0
1387.75	0.08
1388.13	0.08
1388.5	0.2
1388.87	0.2
1389.25	0.2
1389.62	-0.08
1389.99	-0.28
1390.36	-0.4
1390.74	-0.4
1391.11	-0.4
1391.48	0.12
1391.85	0.32
1392.23	0.36
1392.6	0.36
1392.97	0.36
1393.34	0.08
1393.72	0.28
1394.09	0.28
1394.46	0.28
1394.83	0.28
1395.21	0.24
1395.58	0.04
1395.95	0
1396.32	0.08
1396.69	0.08
1397.07	0.16
1397.44	0.16
1397.81	0.16
1398.18	0.08
1398.55	0.24
1398.93	0.52
1399.3	0.68
1399.67	0.68
1400.04	0.68
1400.41	0.52
1400.79	0.16
1401.16	0
1401.53	0
1401.9	0
1402.27	0
1402.65	0.12
1403.02	0.16
1403.39	0.36
1403.76	-0.04
1404.13	-0.04
1404.51	0.2
1404.88	0.16
1405.25	-0.04
1405.62	0.36
1405.99	0.36
1406.36	0.04
1406.74	0.04
1407.11	0.04
1407.48	0.08
1407.85	-0.8
1408.22	-0.52
1408.59	-0.52
1408.96	-0.52
1409.34	-0.56
1409.71	0.6
1410.08	0.28
1410.45	0.28
1410.82	0.28
1411.19	0.36
1411.56	0.08
1411.93	0.28
1412.31	0.28
1412.68	0.4
1413.05	0.32
1413.42	0.32
1413.79	0.28
1414.16	0.08
1414.53	2.4425e-17
1414.9	-0.2
1415.27	-0.2
1415.65	-0.36
1416.02	-0.04
1416.39	-0.08
1416.76	0.32
1417.13	0.32
1417.5	0.32
1417.87	0.24
1418.24	0.24
1418.61	0.08
1418.98	0.08
1419.35	0.08
1419.73	0.04
1420.1	0.4
1420.47	0.36
1420.84	0.36
1421.21	0.36
1421.58	0.36
1421.95	0
1422.32	0
1422.69	0
1423.06	0
1423.43	0.2
1423.8	0.2
1424.17	0.2
1424.54	0.48
1424.91	0.56
1425.28	0.4
1425.65	0.4
1426.02	0.4
1426.39	0.12
1426.76	-0.56
1427.14	-0.56
1427.51	-0.32
1427.88	-0.2
1428.25	-0.2
1428.62	0.48
1428.99	0.48
1429.36	0.24
1429.73	0.12
1430.1	0.16
1430.47	0.24
1430.84	0.48
1431.21	0.6
1431.58	0.68
1431.95	0.64
1432.32	0.28
1432.69	0
1433.06	-0.12
1433.43	0.2
1433.8	0.2
1434.17	0.44
1434.54	0.44
1434.91	0.44
1435.28	0.08
1435.64	0.12
1436.01	-0.4
1436.38	-0.4
1436.75	-0.4
1437.12	-0.32
1437.49	-0.12
1437.86	0.36
1438.23	0.4
1438.6	0.4
1438.97	0.32
1439.34	0.2
1439.71	0.2
1440.08	0.16
1440.45	0.24
1440.82	-0.16
1441.19	-0.28
1441.56	-0.28
1441.93	-0.28
1442.3	-0.28
1442.67	-1.44
1443.03	-1.4
1443.4	-1.4
1443.77	-1.4
1444.14	-1.4
1444.51	0.12
1444.88	0.08
1445.25	0.08
1445.62	0.08
1445.99	0
1446.36	0
1446.73	0
1447.09	0
1447.46	0.2
1447.83	0.32
1448.2	0.36
1448.57	0.32
1448.94	0.32
1449.31	0.12
1449.68	1.44334e-17
1450.05	-0.04
1450.41	0
1450.78	-0.4
1451.15	-0.28
1451.52	-0.28
1451.89	-0.08
1452.26	-0.08
1452.63	0.32
1453	0.2
1453.36	0.2
1453.73	0
1454.1	0
1454.47	0.04
1454.84	0.16
1455.21	0.16
1455.57	-0.24
1455.94	-0.24
1456.31	-0.28
1456.68	-0.4
1457.05	-0.4
1457.42	0.12
1457.78	0.32
1458.15	0.32
1458.52	0.48
1458.89	0.48
1459.26	0.44
1459.63	0.36
1459.99	0.36
1460.36	0.2
1460.73	0.28
1461.1	0.2
1461.47	0.24
1461.83	0.36
1462.2	0.36
1462.57	0.28
1462.94	0.32
1463.31	0.16
1463.67	0.2
1464.04	2.77556e-17
1464.41	2.77556e-17
1464.78	-0.4
1465.15	-0.24
1465.51	-0.4
1465.88	-0.08
1466.25	-0.08
1466.62	0.68
1466.98	0.56
1467.35	0.56
1467.72	0.44
1468.09	0.44
1468.46	0.04
1468.82	0
1469.19	0.12
1469.56	0.16
1469.93	0.16
1470.29	0.16
1470.66	0.2
1471.03	0.08
1471.4	0.04
1471.76	0.04
1472.13	0.04
1472.5	0
1472.86	0
1473.23	0
1473.6	0.08
1473.97	0.08
1474.33	0.12
1474.7	0.12
1475.07	0.12
1475.44	0.04
1475.8	-0.16
1476.17	-0.2
1476.54	0.2
1476.9	0.2
1477.27	0.36
1477.64	0.56
1478	0.68
1478.37	0.28
1478.74	0.4
1479.11	0.28
1479.47	0.28
1479.84	0.48
1480.21	0.48
1480.57	0.36
1480.94	0.32
1481.31	0.4
1481.67	0.08
1482.04	0.08
1482.41	0.08
1482.77	0.12
1483.14	0.04
1483.51	0.12
1483.87	0.12
1484.24	0.24
1484.61	0.4
1484.97	0.4
1485.34	0.32
1485.71	-0.68
1486.07	-0.8
1486.44	-1
1486.81	-1
1487.17	-1
1487.54	0.24
1487.9	0.24
1488.27	0.24
1488.64	0.04
1489	0.04
1489.37	-0.04
1489.74	-0.04
1490.1	-0.04
1490.47	0.44
1490.83	0.44
1491.2	0.28
1491.57	0.28
1491.93	0.36
1492.3	0.08
1492.66	0.2
1493.03	0.2
1493.4	0.2
1493.76	0.12
1494.13	0.32
1494.49	0.2
1494.86	0.52
1495.23	0.52
1495.59	0.72
1495.96	-0.8
1496.32	-0.76
1496.69	-1.08
1497.06	-1.08
1497.42	-1.72
1497.79	-0.36
1498.15	-0.4
1498.52	-0.32
1498.88	-2.66443e-17
1499.25	0.44
1499.62	5.55112e-17
1499.98	5.55112e-17
1500.35	0.16
1500.71	-0.12
1501.08	-2.10945e-17
1501.44	0.4
1501.81	0.64
1502.17	0.44
1502.54	0.4
1502.9	0.28
1503.27	0.4
1503.64	0.16
1504	0.12
1504.37	0.2
1504.73	0.44
1505.1	0.32
1505.46	0.32
1505.83	0.68
1506.19	0.6
1506.56	0.36
1506.92	0.48
1507.29	0.6
1507.65	0.24
1508.02	0.52
1508.38	0.68
1508.75	0.92
1509.11	0.8
1509.48	0.8
1509.84	0.6
1510.21	0.64
1510.57	0.28
1510.94	0.28
1511.3	0.28
1511.67	0.6
1512.03	0.4
1512.4	0.4
1512.76	0.4
1513.13	-0.48
1513.49	-1.08
1513.85	-1.08
1514.22	-1.08
1514.58	-1.04
1514.95	-0.04
1515.31	0.16
1515.68	0.16
1516.04	0.16
1516.41	0.12
1516.77	0
1517.14	0
1517.5	0
1517.86	0
1518.23	0
1518.59	0.48
1518.96	0.48
1519.32	0.48
1519.69	0.48
1520.05	0.52
1520.41	0.04
1520.78	0.04
1521.14	0.32
1521.51	0.32
1521.87	0.28
1522.24	0.28
1522.6	0.44
1522.96	0.2
1523.33	0.32
1523.69	0.32
1524.06	0.48
1524.42	0.32
1524.78	0.28
1525.15	0.16
1525.51	0.4
1525.88	0.24
1526.24	0.56
1526.6	0.56
1526.97	0.84
1527.33	0.6
1527.69	0.6
1528.06	0.64
1528.42	0.64
1528.79	0.84
1529.15	0.04
1529.51	0.04
1529.88	-0.2
1530.24	-0.2
1530.6	-0.68
1530.97	0.16
1531.33	0.16
1531.69	0.24
1532.06	0.48
1532.42	0.48
1532.78	0.84
1533.15	0.84
1533.51	0.64
1533.87	0.4
1534.24	0.44
1534.6	0.04
1534.96	0.04
1535.33	0.04
1535.69	0.28
1536.05	0.24
1536.42	0.24
1536.78	0.72
1537.14	0.72
1537.51	0.48
1537.87	0.52
1538.23	0.52
1538.6	0.2
1538.96	0.2
1539.32	0.2
1539.68	0.16
1540.05	0.16
1540.41	0
1540.77	0
1541.14	0.12
1541.5	0.24
1541.86	0.36
1542.23	0.48
1542.59	0.48
1542.95	0.96
1543.31	0.96
1543.68	0.84
1544.04	0.72
1544.4	0.88
1544.76	0.56
1545.13	0.44
1545.49	0.44
1545.85	0.44
1546.21	0.28
1546.58	0.08
1546.94	0.08
1547.3	0.08
1547.66	0.08
1548.03	0.08
1548.39	0
1548.75	0
1549.11	0.36
1549.48	0.36
1549.84	0.36
1550.2	0.44
1550.56	0.44
1550.93	0.08
1551.29	0.2
1551.65	0.2
1552.01	0.12
1552.37	0.16
1552.74	0.16
1553.1	0.04
1553.46	0.04
1553.82	0.48
1554.18	0.44
1554.55	0.48
1554.91	0.56
1555.27	0.92
1555.63	0.68
1555.99	0.68
1556.36	0.64
1556.72	-0.64
1557.08	-1
1557.44	-1.2
1557.8	-1.2
1558.17	-1.2
1558.53	0.2
1558.89	0.28
1559.25	0.28
1559.61	0.28
1559.97	0.28
1560.34	0.08
1560.7	0.16
1561.06	0.16
1561.42	0.16
1561.78	0.16
1562.14	-0.12
1562.5	-0.08
1562.87	-0.08
1563.23	-0.04
1563.59	-0.04
1563.95	0.24
1564.31	0.04
1564.67	0.04
1565.03	0
1565.4	0.12
1565.76	0.12
1566.12	0.12
1566.48	0.12
1566.84	0.32
1567.2	0.76
1567.56	0.64
1567.92	0.64
1568.29	0.72
1568.65	0.72
1569.01	0.24
1569.37	1.33357e-17
1569.73	1.33357e-17
1570.09	-0.08
1570.45	-0.28
1570.81	-0.36
1571.17	0.12
1571.53	0.12
1571.89	0.12
1572.26	0.16
1572.62	0.16
1572.98	0.16
1573.34	0.36
1573.7	0.36
1574.06	0.32
1574.42	0.76
1574.78	0.48
1575.14	0.28
1575.5	0.28
1575.86	-0.52
1576.22	-0.88
1576.58	-0.68
1576.94	-0.68
1577.3	-0.68
1577.67	0.16
1578.03	0.08
1578.39	0.04
1578.75	0.04
1579.11	0.04
1579.47	0
1579.83	0.2
1580.19	0.32
1580.55	0.32
1580.91	0.32
1581.27	0.48
1581.63	0.28
1581.99	0.16
1582.35	0.16
1582.71	0.36
1583.07	0.2
1583.43	0.4
1583.79	0.4
1584.15	0.48
1584.51	0.28
1584.87	0.44
1585.23	0.24
1585.59	0.24
1585.95	0.24
1586.31	0.24
1586.67	0.08
1587.03	0.08
1587.39	0.24
1587.75	0.16
1588.11	0.52
1588.47	0.56
1588.83	0.56
1589.19	0.4
1589.55	0.4
1589.91	0.04
1590.27	0
1590.63	0.4
1590.99	0.44
1591.35	0.44
1591.71	0.44
1592.07	0.48
1592.42	0.08
1592.78	0.28
1593.14	0.48
1593.5	0.72
1593.86	0.68
1594.22	0.76
1594.58	0.56
1594.94	0.36
1595.3	0.16
1595.66	0.28
1596.02	0.2
1596.38	0.16
1596.74	0.16
1597.1	0.84
1597.46	0.72
1597.81	1.08
1598.17	1.4
1598.53	1.4
1598.89	0.68
1599.25	0.68
1599.61	0.32
1599.97	0.08
1600.33	0.12
1600.69	0.12
1601.05	0.2
1601.4	0.2
1601.76	-0.2
1602.12	-0.16
1602.48	0.16
1602.84	0.08
1603.2	0.08
1603.56	0.4
1603.92	0.68
1604.28	0.36
1604.63	0.48
1604.99	0.64
1605.35	0.76
1605.71	0.4
1606.07	0.72
1606.43	0.8
1606.79	0.76
1607.14	0.68
1607.5	0.72
1607.86	0.44
1608.22	0.48
1608.58	0.36
1608.94	0.44
1609.29	0.44
1609.65	0.2
1610.01	-3.33053e-18
1610.37	-3.33053e-18
1610.73	-0.12
1611.09	-0.16
1611.44	0.12
1611.8	0.16
1612.16	0.36
1612.52	0.36
1612.88	0.36
1613.24	0.28
1613.59	0.24
1613.95	0.08
1614.31	0.16
1614.67	0.16
1615.03	0.36
1615.38	0.32
1615.74	0.28
1616.1	0.2
1616.46	0.24
1616.82	0.04
1617.17	0.36
1617.53	0.48
1617.89	0.48
1618.25	0.52
1618.6	0.8
1618.96	0.6
1619.32	0.48
1619.68	0.48
1620.04	0.68
1620.39	0.28
1620.75	0.2
1621.11	0.2
1621.47	0.24
1621.82	-0.04
1622.18	0.08
1622.54	0.04
1622.9	0.12
1623.25	-0.92
1623.61	-0.8
1623.97	-0.8
1624.33	-0.72
1624.68	-1
1625.04	0
1625.4	0.16
1625.75	-0.4
1626.11	-0.08
1626.47	0.24
1626.83	0.24
1627.18	0.04
1627.54	0.6
1627.9	0.2
1628.26	0.08
1628.61	0.08
1628.97	0.16
1629.33	0.44
1629.68	0.48
1630.04	0.48
1630.4	-2.66443e-17
1630.75	-0.16
1631.11	-0.32
1631.47	-0.56
1631.83	-0.56
1632.18	0.04
1632.54	0.2
1632.9	0.08
1633.25	0.32
1633.61	0.32
1633.97	0.2
1634.32	0.24
1634.68	0.32
1635.04	0.4
1635.39	0.48
1635.75	0.52
1636.11	0.44
1636.46	0.4
1636.82	0.4
1637.18	0.32
1637.53	0.4
1637.89	0.28
1638.25	0.48
1638.6	0.36
1638.96	0.44
1639.31	0.48
1639.67	0.56
1640.03	0.32
1640.38	0.32
1640.74	0.24
1641.1	0.08
1641.45	0.12
1641.81	0.12
1642.16	0.12
1642.52	0.64
1642.88	0.64
1643.23	0.04
1643.59	0.2
1643.95	0.24
1644.3	-0.28
1644.66	-0.12
1645.01	0.56
1645.37	0.4
1645.73	0.36
1646.08	0.36
1646.44	0.2
1646.79	-0.6
1647.15	-0.44
1647.51	-0.44
1647.86	-0.32
1648.22	-0.32
1648.57	-0.52
1648.93	-0.68
1649.28	-0.68
1649.64	-0.8
1650	-0.8
1650.35	0.16
1650.71	0.4
1651.06	0.4
1651.42	0.4
1651.77	0.28
1652.13	0.12
1652.48	-0.12
1652.84	-0.08
1653.2	-0.04
1653.55	0.08
1653.91	0.12
1654.26	0.12
1654.62	0.08
1654.97	0.04
1655.33	0.04
1655.68	0
1656.04	0
1656.39	0.2
1656.75	0.36
1657.1	0.36
1657.46	0.48
1657.81	0.48
1658.17	0.28
1658.52	0.48
1658.88	0.48
1659.23	0.36
1659.59	0.44
1659.94	0.44
1660.3	0.08
1660.65	0.08
1661.01	0.08
1661.36	0.12
1661.72	0.2
1662.07	0.2
1662.43	0.32
1662.78	0.32
1663.14	0.28
1663.49	0.4
1663.85	0.44
1664.2	0.32
1664.56	0.48
1664.91	-1.2
1665.27	-1.04
1665.62	-1.08
1665.98	-0.84
1666.33	-1
1666.69	0.6
1667.04	0.36
1667.39	0.36
1667.75	0.12
1668.1	0.16
1668.46	0.4
1668.81	0.28
1669.17	0.6
1669.52	0.6
1669.88	0.56
1670.23	0.32
1670.58	0.44
1670.94	0.16
1671.29	0.16
1671.65	0.68
1672	0.68
1672.36	0.64
1672.71	0.68
1673.06	0.68
1673.42	0.24
1673.77	0.24
1674.13	0.16
1674.48	0.32
1674.83	0.32
1675.19	0.4
1675.54	0.44
1675.9	0.44
1676.25	0.64
1676.6	0.84
1676.96	0.68
1677.31	0.64
1677.67	0.96
1678.02	0.52
1678.37	0.32
1678.73	0.72
1679.08	0.76
1679.43	0.44
1679.79	0.6
1680.14	0.6
1680.5	-0.36
1680.85	-0.4
1681.2	-0.16
1681.56	0.16
1681.91	0.2
1682.26	0.96
1682.62	0.96
1682.97	0.76
1683.32	0.44
1683.68	0.4
1684.03	0.28
1684.38	0.44
1684.74	0.4
1685.09	0.24
1685.44	0.48
1685.8	0.48
1686.15	0.32
1686.5	0.32
1686.86	0.76
1687.21	0.36
1687.56	0.8
1687.92	1.16
1688.27	1.2
1688.62	1.32
1688.98	1.68
1689.33	1.28
1689.68	0.96
1690.03	1.12
1690.39	0.56
1690.74	0.68
1691.09	0.84
1691.45	0.4
1691.8	0.68
1692.15	0.68
1692.5	0.36
1692.86	0.24
1693.21	0.76
1693.56	0.68
1693.92	0.68
1694.27	0.48
1694.62	0.48
1694.97	0.64
1695.33	0.24
1695.68	0.24
1696.03	0.52
1696.38	0.36
1696.74	0.08
1697.09	0.2
1697.44	0.72
1697.79	0.8
1698.15	0.84
1698.5	1.28
1698.85	1.28
1699.2	-0.04
1699.56	-0.12
1699.91	-0.16
1700.26	-0.6
1700.61	-0.56
1700.97	0.28
1701.32	0.32
1701.67	0.52
1702.02	0.52
1702.37	0.36
1702.73	0.8
1703.08	0.8
1703.43	0.64
1703.78	0.64
1704.13	0.64
1704.49	0.2
1704.84	0.16
1705.19	0.6
1705.54	0.6
1705.89	0.76
1706.25	0.84
1706.6	0.96
1706.95	0.8
1707.3	0.96
1707.65	0.96
1708.01	0.84
1708.36	0.92
1708.71	0.6
1709.06	0.44
1709.41	0.36
1709.76	0.4
1710.12	0.12
1710.47	0.24
1710.82	0.44
1711.17	0.4
1711.52	0.76
1711.87	0.88
1712.23	0.84
1712.58	0.8
1712.93	0.84
1713.28	0.68
1713.63	0.56
1713.98	0.76
1714.33	0.64
1714.69	0.56
1715.04	0.32
1715.39	0.32
1715.74	0.28
1716.09	0.24
1716.44	0.36
1716.79	0.36
1717.14	0.68
1717.5	0.44
1717.85	0.68
1718.2	0.6
1718.55	0.68
1718.9	0.48
1719.25	1.12
1719.6	0.92
1719.95	1.32
1720.3	1.56
1720.65	1.44
1721.01	0.96
1721.36	1.08
1721.71	0.76
1722.06	0.2
1722.41	0.28
1722.76	0.12
1723.11	0.04
1723.46	-0.08
1723.81	0.68
1724.16	1
1724.51	1.68
1724.86	1.8
1725.21	1.88
1725.56	1.88
1725.92	1.8
1726.27	1.36
1726.62	1.36
1726.97	1.56
1727.32	0.84
1727.67	0.76
1728.02	0.52
1728.37	0.56
1728.72	0.92
1729.07	1.12
1729.42	1.52
1729.77	1.72
1730.12	1.64
1730.47	1.6
1730.82	1.96
1731.17	1.48
1731.52	1.44
1731.87	2
1732.22	2.08
1732.57	2.64
1732.92	2.68
1733.27	3.28
1733.62	3
1733.97	3.08
1734.32	2.84
1734.67	3.16
1735.02	2.52
1735.37	2.84
1735.72	2.2
1736.07	2.68
1736.42	3.32
1736.77	3.88
1737.12	4.36
1737.47	5.24
1737.82	5.12
1738.17	4.88
1738.52	5.04
1738.87	4.48
1739.22	4.44
1739.57	5.16
1739.92	5.72
1740.27	5.28
1740.62	6.08
1740.97	6.24
1741.32	5.52
1741.67	5
1742.02	5.68
1742.37	5.84
1742.72	6.28
1743.06	6.72
1743.41	7.48
1743.76	8.12
1744.11	7.24
1744.46	8.04
1744.81	7.48
1745.16	6.76
1745.51	7.32
1745.86	8.2
1746.21	6.76
1746.56	7.84
1746.91	9.6
1747.26	9.12
1747.6	10.12
1747.95	11.44
1748.3	11.56
1748.65	10.12
1749	9.92
1749.35	9.08
1749.7	9.64
1750.05	9.6
1750.4	11.04
1750.75	11.32
1751.09	11.44
1751.44	10.76
1751.79	10.36
1752.14	8.88
1752.49	9.52
1752.84	10.04
1753.19	10.44
1753.54	11.08
1753.88	11.92
1754.23	12
1754.58	12.44
1754.93	12.36
1755.28	12.2
1755.63	13.28
1755.98	11.68
1756.32	11.08
1756.67	9.92
1757.02	9.24
1757.37	9.08
1757.72	10.16
1758.07	9.68
1758.42	12.12
1758.76	11.84
1759.11	10.12
1759.46	9.68
1759.81	8.72
1760.16	7.64
1760.5	8.4
1760.85	8.12
1761.2	8.88
1761.55	8.76
1761.9	7.96
1762.25	7.68
1762.59	8.44
1762.94	8.32
1763.29	9.04
1763.64	8.12
1763.99	9.12
1764.33	8.4
1764.68	6.96
1765.03	8.24
1765.38	8.44
1765.73	6.52
1766.07	6.84
1766.42	7.32
1766.77	6.24
1767.12	6.16
1767.46	5.96
1767.81	5.4
1768.16	4.72
1768.51	4.08
1768.85	3.52
1769.2	3.8
1769.55	3.64
1769.9	4.36
1770.25	4.36
1770.59	5.32
1770.94	5.96
1771.29	5.8
1771.64	5.16
1771.98	4.88
1772.33	3.68
1772.68	2.64
1773.02	2.48
1773.37	2.32
1773.72	1.84
1774.07	2.4
1774.41	2.24
1774.76	2.96
1775.11	2.72
1775.46	2.88
1775.8	2.32
1776.15	2.4
1776.5	1.56
1776.84	1.72
1777.19	1.68
1777.54	1.52
1777.89	2
1778.23	2.52
1778.58	2.44
1778.93	2.64
1779.27	3.08
1779.62	2.84
1779.97	2.72
1780.31	2.44
1780.66	1.96
1781.01	2.08
1781.35	1.64
1781.7	1.28
1782.05	1.4
1782.39	1.84
1782.74	1.8
1783.09	1.76
1783.43	1.72
1783.78	1.68
1784.13	1.44
1784.47	0.48
1784.82	0.48
1785.17	1.4
1785.51	1.64
1785.86	1.76
1786.21	2.32
1786.55	2.64
1786.9	1.96
1787.25	2.04
1787.59	1.96
1787.94	1.88
1788.29	1.8
1788.63	2.04
1788.98	1.8
1789.32	2
1789.67	2.32
1790.02	6
1790.36	8.92
1790.71	11.32
1791.06	12.28
1791.4	14.2
1791.75	13.08
1792.09	12.88
1792.44	11.04
1792.79	9
1793.13	9.68
1793.48	8.56
1793.82	5.96
1794.17	4.44
1794.52	6.36
1794.86	4.36
1795.21	2.92
1795.55	2.36
1795.9	8.72
1796.24	18.72
1796.59	21.12
1796.94	26.08
1797.28	31.56
1797.63	27.52
1797.97	19.72
1798.32	20.64
1798.66	22.28
1799.01	22.32
1799.36	23.08
1799.7	27.64
1800.05	32.28
1800.39	27.6
1800.74	34.8
1801.08	49.84
1801.43	49.72
1801.77	45.8
1802.12	48.64
1802.46	43.88
1802.81	34.2
1803.15	29.12
1803.5	30.16
1803.85	29.4
1804.19	26.4
1804.54	31.36
1804.88	37.32
1805.23	37.12
1805.57	46.2
1805.92	56.88
1806.26	57.2
1806.61	57.28
1806.95	67.12
1807.3	82.72
1807.64	88.12
1807.99	86.16
1808.33	87.88
1808.68	81.84
1809.02	79.36
1809.37	90.96
1809.71	97.32
1810.06	102.6
1810.4	107.72
1810.75	93.44
1811.09	89.08
1811.43	111.4
1811.78	124.72
1812.12	141.28
1812.47	153.12
1812.81	143.68
1813.16	130.4
1813.5	123.28
1813.85	109.04
1814.19	107.08
1814.54	105.6
1814.88	90.04
1815.23	81.84
1815.57	72.8
1815.91	57.24
1816.26	64.44
1816.6	90.32
1816.95	102.12
1817.29	121.92
1817.64	149.16
1817.98	159.04
1818.32	168.2
1818.67	177.12
1819.01	177.36
1819.36	177.76
1819.7	166.24
1820.05	144.92
1820.39	149.72
1820.73	147.24
1821.08	134.68
1821.42	142.72
1821.77	139.88
1822.11	113.44
1822.45	114.04
1822.8	118.08
1823.14	102.68
1823.49	125.4
1823.83	165
1824.17	178.24
1824.52	196.56
1824.86	217.36
1825.2	198.32
1825.55	172.6
1825.89	154.84
1826.24	144.56
1826.58	163.36
1826.92	179.68
1827.27	184.4
1827.61	203.84
1827.95	204.16
1828.3	171.52
1828.64	154.56
1828.98	144.52
1829.33	132.28
1829.67	158.76
1830.02	183.8
1830.36	197.32
1830.7	231.32
1831.05	249.52
1831.39	223.2
1831.73	219.28
1832.08	220.28
1832.42	192.16
1832.76	179.6
1833.1	181.32
1833.45	161.4
1833.79	151.44
1834.13	156.4
1834.48	150.76
1834.82	154.84
1835.16	168.92
1835.51	162.64
1835.85	159.4
1836.19	161.84
1836.54	138.88
1836.88	120.56
1837.22	112.12
1837.56	101.68
1837.91	105
1838.25	136.88
1838.59	153.68
1838.94	169.6
1839.28	183.76
1839.62	174.8
1839.96	152.88
1840.31	142.4
1840.65	128.92
1840.99	130.36
1841.34	168.48
1841.68	192.12
1842.02	205.4
1842.36	230.6
1842.71	220.8
1843.05	180.72
1843.39	183.92
1843.73	202.96
1844.08	211.48
1844.42	244
1844.76	269.8
1845.1	250.36
1845.45	228.52
1845.79	219.08
1846.13	201.24
1846.47	191.44
1846.81	188.4
1847.16	191.72
1847.5	204.48
1847.84	216.08
1848.18	224.88
1848.53	237.08
1848.87	234.08
1849.21	219.16
1849.55	203.64
1849.89	190.96
1850.24	181.12
1850.58	175.48
1850.92	168.44
1851.26	167.64
1851.6	163.28
1851.95	157.48
1852.29	158.32
1852.63	149.92
1852.97	139.4
1853.31	132.64
1853.66	124.2
1854	126.16
1854.34	135.24
1854.68	143.92
1855.02	150.16
1855.36	161
1855.71	150.16
1856.05	140.24
1856.39	129.76
1856.73	121.24
1857.07	115.12
1857.41	112.56
1857.76	112.08
1858.1	119.72
1858.44	113
1858.78	108.92
1859.12	109.84
1859.46	101.56
1859.8	87.28
1860.15	85.72
1860.49	88.24
1860.83	97.52
1861.17	115
1861.51	116.16
1861.85	117.68
1862.19	111
1862.53	97.84
1862.88	85.64
1863.22	88.92
1863.56	86.08
1863.9	85.8
1864.24	93.56
1864.58	88.76
1864.92	84.52
1865.26	89.16
1865.6	85.32
1865.94	72.48
1866.29	69.68
1866.63	63
1866.97	57.28
1867.31	54.6
1867.65	50.52
1867.99	54.16
1868.33	55.56
1868.67	49.96
1869.01	48.6
1869.35	52.72
1869.69	60.4
1870.03	67.56
1870.37	76.08
1870.72	85.56
1871.06	86.56
1871.4	71.56
1871.74	59.92
1872.08	52.08
1872.42	48.48
1872.76	54.24
1873.1	61.28
1873.44	63.84
1873.78	62.08
1874.12	54.36
1874.46	40.76
1874.8	39.24
1875.14	49.08
1875.48	53.2
1875.82	55.44
1876.16	58.16
1876.5	56.88
1876.84	48.32
1877.18	46.52
1877.52	43.76
1877.86	40.4
1878.2	34.36
1878.54	27
1878.88	23.36
1879.22	23.04
1879.56	21.68
1879.9	18.76
1880.24	20.2
1880.58	19.32
1880.92	20.8
1881.26	22.32
1881.6	21.64
1881.94	19.08
1882.28	17.88
1882.62	15.24
1882.96	18.24
1883.3	25.96
1883.64	29.88
1883.98	29.88
1884.32	30.44
1884.66	24.64
1885	15.2
1885.34	12.36
1885.68	16.04
1886.02	13.24
1886.36	11.88
1886.7	13.12
1887.04	11.8
1887.38	7.4
1887.72	6.88
1888.06	5.6
1888.39	4.32
1888.73	4.6
1889.07	7.36
1889.41	10.28
1889.75	14.36
1890.09	19.44
1890.43	23.24
1890.77	22.76
1891.11	20.28
1891.45	17.44
1891.79	12.92
1892.13	9.52
1892.47	6.76
1892.8	5.36
1893.14	6.64
1893.48	6.24
1893.82	7.4
1894.16	8.24
1894.5	9.76
1894.84	7.96
1895.18	8.56
1895.52	6.64
1895.86	5.96
1896.19	6.32
1896.53	8.04
1896.87	7.56
1897.21	7.56
1897.55	9.72
1897.89	9.52
1898.23	11.72
1898.57	12.32
1898.9	12.24
1899.24	10.8
1899.58	11.52
1899.92	8.4
1900.26	7.16
1900.6	8.72
1900.94	8.72
1901.27	8.6
1901.61	8.52
1901.95	9.52
1902.29	8.36
1902.63	9.4
1902.97	9.96
1903.3	11.44
1903.64	12.16
1903.98	13.08
1904.32	12.6
1904.66	12.04
1905	11.76
1905.33	11.92
1905.67	13.12
1906.01	15.4
1906.35	17.52
1906.69	18.48
1907.02	19.96
1907.36	19.48
1907.7	19.6
1908.04	18.12
1908.38	19.84
1908.71	20.4
1909.05	22.92
1909.39	22.64
1909.73	24.52
1910.07	23.84
1910.4	22.88
1910.74	22.76
1911.08	24.2
1911.42	23.28
1911.76	24.96
1912.09	26.56
1912.43	27.24
1912.77	27
1913.11	30.2
1913.44	29.72
1913.78	32
1914.12	33.72
1914.46	36.16
1914.79	36.6
1915.13	38.8
1915.47	38.36
1915.81	37.08
1916.14	36.56
1916.48	38.16
1916.82	38.84
1917.16	40.32
1917.49	42.64
1917.83	43.24
1918.17	42.56
1918.5	43.92
1918.84	43.4
1919.18	43.28
1919.52	46.28
1919.85	47.4
1920.19	46.32
1920.53	48.96
1920.87	51.96
1921.2	51.56
1921.54	53.6
1921.88	56.04
1922.21	57.44
1922.55	56.2
1922.89	57.76
1923.22	58.4
1923.56	57.8
1923.9	57.76
1924.23	59.92
1924.57	58.36
1924.91	57.16
1925.25	59.32
1925.58	60.6
1925.92	59.6
1926.26	64.24
1926.59	66.48
1926.93	65.76
1927.27	66.88
1927.6	70.24
1927.94	68.8
1928.28	69.32
1928.61	72.2
1928.95	73.6
1929.29	72.12
1929.62	75.36
1929.96	75.8
1930.29	73.52
1930.63	73.6
1930.97	76.36
1931.3	74.08
1931.64	75.64
1931.98	79.56
1932.31	77.32
1932.65	77.4
1932.99	78.04
1933.32	77.24
1933.66	76.56
1933.99	81.48
1934.33	79.48
1934.67	79.68
1935	82.28
1935.34	82.48
1935.67	81.64
1936.01	84.48
1936.35	85.8
1936.68	84.76
1937.02	86.88
1937.35	87.72
1937.69	87.48
1938.03	88.92
1938.36	88.24
1938.7	86.16
1939.03	85.64
1939.37	87.16
1939.7	86.04
1940.04	88.48
1940.38	89.8
1940.71	89.04
1941.05	88.96
1941.38	90.88
1941.72	90.84
1942.05	90.6
1942.39	92.04
1942.73	91.68
1943.06	91.44
1943.4	92
1943.73	93.76
1944.07	93.36
1944.4	94.12
1944.74	95.52
1945.07	95.68
1945.41	95.64
1945.74	98
1946.08	97.48
1946.42	96.12
1946.75	97.96
1947.09	98.24
1947.42	96.6
1947.76	97.8
1948.09	97.92
1948.43	95.2
1948.76	96.16
1949.1	97.44
1949.43	96.48
1949.77	96.92
1950.1	98.44
1950.44	98.68
1950.77	98.56
1951.11	99.32
1951.44	99.56
1951.78	96.6
1952.11	96.32
1952.45	96.32
1952.78	95.76
1953.12	94.4
1953.45	96.52
1953.79	96.44
1954.12	93.28
1954.46	94.44
1954.79	94.96
1955.12	94.56
1955.46	92.88
1955.79	94.52
1956.13	93.92
1956.46	92.16
1956.8	93.16
1957.13	93.48
1957.47	92.24
1957.8	90.72
1958.14	92.88
1958.47	90.76
1958.8	89.68
1959.14	90.68
1959.47	91.48
1959.81	89.84
1960.14	90.8
1960.48	91.68
1960.81	91
1961.14	88
1961.48	88.52
1961.81	87.16
1962.15	85.12
1962.48	85.6
1962.82	87.16
1963.15	86.4
1963.48	85.64
1963.82	85.92
1964.15	86.72
1964.49	86.92
1964.82	85.36
1965.15	86.08
1965.49	86.2
1965.82	83.32
1966.16	81.24
1966.49	81.52
1966.82	78.64
1967.16	76.24
1967.49	75.76
1967.83	76.6
1968.16	75.32
1968.49	76.2
1968.83	77.6
1969.16	75.88
1969.49	74.32
1969.83	74.2
1970.16	74.2
1970.49	71.6
1970.83	70.48
1971.16	69.68
1971.5	69.36
1971.83	67.08
1972.16	65.88
1972.5	66.28
1972.83	64.76
1973.16	63.52
1973.5	63.48
1973.83	64.2
1974.16	63.56
1974.5	63.36
1974.83	62.68
1975.16	62.56
1975.5	61.12
1975.83	59.88
1976.16	59.44
1976.49	59.08
1976.83	57.76
1977.16	56.64
1977.49	55.44
1977.83	53.44
1978.16	50.92
1978.49	49.28
1978.83	49.36
1979.16	47.88
1979.49	47.04
1979.83	47.8
1980.16	45.88
1980.49	44.24
1980.82	42.96
1981.16	42.6
1981.49	39.84
1981.82	39.56
1982.15	37.56
1982.49	38.12
1982.82	36.84
1983.15	36.16
1983.49	34.2
1983.82	32.92
1984.15	31.2
1984.48	30.52
1984.82	29.84
1985.15	30.28
1985.48	30.84
1985.81	30.52
1986.15	28.84
1986.48	27.44
1986.81	26.48
1987.14	25.64
1987.48	22.88
1987.81	22.08
1988.14	22.16
1988.47	19.92
1988.81	18.2
1989.14	19.72
1989.47	19.36
1989.8	18.96
1990.13	18.76
1990.47	19.12
1990.8	16.84
1991.13	16.56
1991.46	13.84
1991.79	13.2
1992.13	9.96
1992.46	10.88
1992.79	9.2
1993.12	9.24
1993.45	9.44
1993.79	11.16
1994.12	8.8
1994.45	8.4
1994.78	7.36
1995.11	7.08
1995.45	5.24
1995.78	6.04
1996.11	4.96
1996.44	5.36
1996.77	4.2
1997.1	4.76
1997.44	3.52
1997.77	4.76
1998.1	4
1998.43	4.24
1998.76	4.08
1999.09	3.68
1999.43	1.72
1999.76	2.64
2000.09	2.64
2000.42	2.16
2000.75	1.12
2001.08	1.8
2001.41	0.76
2001.75	0.4
2002.08	0.48
2002.41	1.52
2002.74	1.76
2003.07	1.56
2003.4	1.12
2003.73	0.72
2004.06	1.56
2004.4	1.32
2004.73	1.44
2005.06	1.56
2005.39	1.92
2005.72	0.96
2006.05	1.12
2006.38	1.32
2006.71	1.44
2007.04	1.24
2007.37	1.44
2007.71	1.72
2008.04	1.72
2008.37	1.32
2008.7	1.24
2009.03	1.16
2009.36	0.8
2009.69	0.48
2010.02	0.8
2010.35	1.48
2010.68	1.6
2011.01	1.68
2011.34	2.44
2011.67	2.64
2012.01	1.92
2012.34	1.8
2012.67	2.44
2013	2.08
2013.33	1.84
2013.66	1.96
2013.99	2.4
2014.32	2.36
2014.65	2.28
2014.98	2.56
2015.31	3.32
2015.64	3.72
2015.97	4.4
2016.3	4.72
2016.63	5.24
2016.96	4.92
2017.29	3.68
2017.62	3.16
2017.95	3.08
2018.28	2.16
2018.61	2.6
2018.94	4.32
2019.27	4.28
2019.6	4.96
2019.93	5.52
2020.26	5.48
2020.59	5.72
2020.92	6.28
2021.25	6.72
2021.58	6.84
2021.91	6
2022.24	5.08
2022.57	5.2
2022.9	5.48
2023.23	5.88
2023.56	7.04
2023.89	8.08
2024.22	8.2
2024.55	8.4
2024.88	8.88
2025.21	8.6
2025.54	9.2
2025.87	8.72
2026.2	9.2
2026.53	9.04
2026.86	10.36
2027.19	9.56
2027.52	9.84
2027.85	8.4
2028.18	9.32
2028.51	9
2028.84	8.76
2029.16	9.32
2029.49	10.12
2029.82	11.08
2030.15	11.12
2030.48	11.32
2030.81	11.36
2031.14	11.32
2031.47	9.52
2031.8	9.2
2032.13	9.6
2032.46	9.4
2032.79	9.52
2033.12	9.72
2033.44	9.8
2033.77	9.8
2034.1	10.4
2034.43	10.8
2034.76	10.28
2035.09	9.72
2035.42	9
2035.75	8.8
2036.08	9.2
2036.41	9.64
2036.73	10.12
2037.06	11.88
2037.39	11.48
2037.72	10.6
2038.05	11.04
2038.38	10.92
2038.71	9.4
2039.04	7.96
2039.36	7.56
2039.69	7.68
2040.02	7.44
2040.35	7.08
2040.68	7.08
2041.01	7
2041.34	5.24
2041.66	5.88
2041.99	6.4
2042.32	7.88
2042.65	7.96
2042.98	9.2
2043.31	7.68
2043.63	6.6
2043.96	6.32
2044.29	5
2044.62	4.28
2044.95	4.96
2045.28	6.92
2045.6	6.08
2045.93	6.6
2046.26	6.56
2046.59	5.88
2046.92	3.92
2047.24	4.08
2047.57	4.6
2047.9	4.6
2048.23	4.96
2048.56	4.36
2048.88	4.32
2049.21	3.48
2049.54	4.16
2049.87	3.84
2050.2	4.52
2050.52	4.72
2050.85	5.2
2051.18	3.72
2051.51	3.8
2051.83	4.2
2052.16	3.4
2052.49	3.32
2052.82	3.2
2053.15	2.96
2053.47	2
2053.8	1.88
2054.13	1.56
2054.46	1.52
2054.78	1.64
2055.11	2.56
2055.44	2.8
2055.77	2.56
2056.09	2.68
2056.42	2.28
2056.75	1.4
2057.08	0.88
2057.4	0.84
2057.73	0.96
2058.06	1.12
2058.38	1.16
2058.71	1.28
2059.04	1.56
2059.37	1.24
2059.69	1.08
2060.02	1.36
2060.35	1.4
2060.67	0.88
2061	0.92
2061.33	0.6
2061.66	0.32
2061.98	0.16
2062.31	0.2
2062.64	0.44
2062.96	0.64
2063.29	0.44
2063.62	1.24
2063.94	1.16
2064.27	1.32
2064.6	0.6
2064.92	0.6
2065.25	0.32
2065.58	0.48
2065.91	0.2
2066.23	0.84
2066.56	0.84
2066.89	0.48
2067.21	0.32
2067.54	0.28
2067.87	0.32
2068.19	0.32
2068.52	0.24
2068.84	0.32
2069.17	0.4
2069.5	0.96
2069.82	0.8
2070.15	1.16
2070.48	1.28
2070.8	1.44
2071.13	1.12
2071.46	1.28
2071.78	1.4
2072.11	1.64
2072.43	1.28
2072.76	1.2
2073.09	1.4
2073.41	1.16
2073.74	0.72
2074.07	0.92
2074.39	0.92
2074.72	0.72
2075.04	0.76
2075.37	1.04
2075.7	1.16
2076.02	0.96
2076.35	1.52
2076.67	1.16
2077	1.44
2077.33	1.28
2077.65	1.32
2077.98	0.96
2078.3	1.32
2078.63	0.88
2078.95	0.8
2079.28	0.76
2079.61	0.4
2079.93	0.28
2080.26	0.32
2080.58	0.4
2080.91	0.8
2081.23	1.12
2081.56	0.88
2081.89	1.08
2082.21	1.08
2082.54	0.76
2082.86	0.6
2083.19	0.68
2083.51	0.48
2083.84	0.52
2084.16	0.6
2084.49	0.76
2084.81	0.92
2085.14	1.16
2085.46	1.24
2085.79	1.08
2086.12	0.96
2086.44	1.08
2086.77	0.92
2087.09	1
2087.42	1.08
2087.74	1.16
2088.07	1
2088.39	0.76
2088.72	0.6
2089.04	0.96
2089.37	0.84
2089.69	0.72
2090.02	0.92
2090.34	0.56
2090.67	0.12
2090.99	-2.08
2091.32	-2.16
2091.64	-1.88
2091.97	-1.08
2092.29	-0.96
2092.62	1.44
2092.94	1.52
2093.26	1.04
2093.59	0.4
2093.91	-0.68
2094.24	-0.68
2094.56	-0.56
2094.89	-0.36
2095.21	-0.36
2095.54	0.8
2095.86	0.72
2096.19	0.68
2096.51	0.68
2096.84	1.16
2097.16	1
2097.48	1.6
2097.81	1.84
2098.13	1.8
2098.46	1.2
2098.78	1.16
2099.11	0.44
2099.43	0.04
2099.75	0.04
2100.08	0.2
2100.4	0.48
2100.73	0.52
2101.05	0.56
2101.38	0.84
2101.7	0.8
2102.02	0.52
2102.35	0.48
2102.67	0.6
2103	0.32
2103.32	0.36
2103.64	0.44
2103.97	1.04
2104.29	0.96
2104.62	1
2104.94	1
2105.26	0.36
2105.59	-0.2
2105.91	-0.24
2106.23	-0.32
2106.56	-0.36
2106.88	0.2
2107.21	0.28
2107.53	0.32
2107.85	0.4
2108.18	0.48
2108.5	0.56
2108.82	0.44
2109.15	0.36
2109.47	0.36
2109.79	0.32
2110.12	0.28
2110.44	0.28
2110.76	0.52
2111.09	0.32
2111.41	0.32
2111.73	0.28
2112.06	0.32
2112.38	0.24
2112.7	-0.32
2113.03	-0.32
2113.35	-0.32
2113.67	-0.24
2114	-0.12
2114.32	0.52
2114.64	0.64
2114.97	1
2115.29	0.88
2115.61	0.6
2115.94	0.52
2116.26	0.4
2116.58	0.28
2116.91	-0.68
2117.23	-0.36
2117.55	-0.12
2117.87	0.12
2118.2	0.04
2118.52	1.36
2118.84	1.16
2119.17	0.92
2119.49	0.64
2119.81	0.72
2120.13	0.36
2120.46	0.28
2120.78	-0.72
2121.1	-0.6
2121.42	-0.72
2121.75	-0.44
2122.07	-0.48
2122.39	0.68
2122.72	0.6
2123.04	0.52
2123.36	0.32
2123.68	0.32
2124.01	0.44
2124.33	0.48
2124.65	0.76
2124.97	0.76
2125.29	0.92
2125.62	0.92
2125.94	0.84
2126.26	0.6
2126.58	1.28
2126.91	0.32
2127.23	0.04
2127.55	0.24
2127.87	0.32
2128.2	-0.44
2128.52	0.4
2128.84	0.56
2129.16	0.56
2129.48	0.52
2129.81	0.64
2130.13	0.92
2130.45	0.76
2130.77	0.84
2131.09	1
2131.42	0.88
2131.74	0.8
2132.06	0.96
2132.38	0.68
2132.7	1.04
2133.02	1.04
2133.35	1.08
2133.67	0.92
2133.99	0.96
2134.31	0.4
2134.63	0.44
2134.96	0.8
2135.28	0.8
2135.6	0.92
2135.92	0.88
2136.24	0.92
2136.56	0.28
2136.88	0.28
2137.21	0.36
2137.53	0.32
2137.85	0.24
2138.17	-0.12
2138.49	-0.04
2138.81	-0.28
2139.13	-0.12
2139.46	-0.12
2139.78	0.32
2140.1	0.24
2140.42	0.32
2140.74	0.2
2141.06	0.6
2141.38	0.52
2141.7	0.56
2142.03	0.56
2142.35	0.52
2142.67	0.2
2142.99	0.2
2143.31	0.16
2143.63	0.12
2143.95	0.16
2144.27	0.08
2144.59	0.08
2144.91	0.12
2145.24	0.08
2145.56	0.04
2145.88	0.4
2146.2	0.52
2146.52	0.48
2146.84	0.48
2147.16	0.52
2147.48	0.2
2147.8	0.2
2148.12	0.2
2148.44	0.32
2148.76	0.28
2149.08	0.24
2149.41	0.12
2149.73	0.44
2150.05	0.32
2150.37	0.32
2150.69	0.32
2151.01	0.32
2151.33	0
2151.65	0.12
2151.97	0.28
2152.29	0.32
2152.61	-0.04
2152.93	-1.72083e-17
2153.25	6.66107e-18
2153.57	-0.16
2153.89	-0.16
2154.21	-0.2
2154.53	-0.24
2154.85	-0.36
2155.17	-0.36
2155.49	-0.6
2155.81	-0.08
2156.13	-0.04
2156.45	0.16
2156.77	0.16
2157.09	0.36
2157.41	0.6
2157.73	0.56
2158.05	0.64
2158.37	0.64
2158.69	0.64
2159.01	0.28
2159.33	0.4
2159.65	0.12
2159.97	0.12
2160.29	0.12
2160.61	0.28
2160.93	0.16
2161.25	0.28
2161.57	0.28
2161.89	0.28
2162.21	0.12
2162.53	0.12
2162.85	-0.4
2163.17	-0.4
2163.49	-0.4
2163.81	-0.4
2164.13	-0.24
2164.45	-0.16
2164.77	-0.08
2165.08	-0.08
2165.4	-0.08
2165.72	-0.24
2166.04	0.08
2166.36	0
2166.68	0.36
2167	0.36
2167.32	0.44
2167.64	0.64
2167.96	0.64
2168.28	0.28
2168.6	0.32
2168.92	0.32
2169.24	0.12
2169.55	0.12
2169.87	0.16
2170.19	0.2
2170.51	0.32
2170.83	0.44
2171.15	0.56
2171.47	0.52
2171.79	0.6
2172.11	0.44
2172.43	0.32
2172.74	0.2
2173.06	0.36
2173.38	0.2
2173.7	0.16
2174.02	0.16
2174.34	0.16
2174.66	0.2
2174.98	0.2
2175.29	0.24
2175.61	0.24
2175.93	0.28
2176.25	0.08
2176.57	0.08
2176.89	0.2
2177.21	0.24
2177.52	0.24
2177.84	0.56
2178.16	0.56
2178.48	0.56
2178.8	0.52
2179.12	0.6
2179.43	0.28
2179.75	-0.72
2180.07	-0.88
2180.39	-0.88
2180.71	-1
2181.03	-1
2181.34	0.32
2181.66	0.32
2181.98	0.36
2182.3	0.36
2182.62	0.36
2182.93	-0.36
2183.25	-0.36
2183.57	-0.4
2183.89	-0.4
2184.21	-0.24
2184.52	0.24
2184.84	0.24
2185.16	0.24
2185.48	0.24
2185.8	0.08
2186.11	0
2186.43	0.12
2186.75	0.2
2187.07	-0.12
2187.39	-0.88
2187.7	-0.88
2188.02	-1.48
2188.34	-1.56
2188.66	-0.84
2188.97	-0.08
2189.29	0.12
2189.61	0.68
2189.93	1.08
2190.24	0.76
2190.56	0.76
2190.88	0.56
2191.2	0.64
2191.51	0.52
2191.83	0.48
2192.15	0.64
2192.47	0.64
2192.78	0.52
2193.1	0.24
2193.42	0.48
2193.74	0.52
2194.05	0.52
2194.37	0.48
2194.69	0.48
2195	-0.2
2195.32	-0.36
2195.64	-0.36
2195.96	-0.36
2196.27	-0.32
2196.59	-0.04
2196.91	-0.08
2197.22	0.12
2197.54	0.12
2197.86	0.08
2198.18	0.2
2198.49	0.2
2198.81	0
2199.13	0
2199.44	0.08
2199.76	0.08
2200.08	0.32
2200.39	0.32
2200.71	0.32
2201.03	0.24
2201.34	0.24
2201.66	0
2201.98	0.12
2202.29	0.12
2202.61	0.12
2202.93	0.12
2203.24	0.16
2203.56	0.04
2203.88	0.12
2204.19	0.12
2204.51	0.12
2204.83	0.2
2205.14	0.44
2205.46	0.36
2205.78	0.36
2206.09	0.44
2206.41	0.24
2206.72	-0.2
2207.04	-0.2
2207.36	-0.52
2207.67	-0.6
2207.99	-0.52
2208.31	-0.32
2208.62	-0.28
2208.94	0.04
2209.25	0.08
2209.57	0.08
2209.89	0.16
2210.2	0.28
2210.52	0.36
2210.83	0.32
2211.15	0.32
2211.47	0.28
2211.78	0.12
2212.1	-0.36
2212.41	-0.36
2212.73	-0.12
2213.05	-1.33221e-17
2213.36	-1.33221e-17
2213.68	0.4
2213.99	0.4
2214.31	0.36
2214.62	0.64
2214.94	0.64
2215.26	0.68
2215.57	0.76
2215.89	0.56
2216.2	0.2
2216.52	0.2
2216.83	0.16
2217.15	0.08
2217.46	0.12
2217.78	0.16
2218.1	0.12
2218.41	0.12
2218.73	0.32
2219.04	0.48
2219.36	0.36
2219.67	0.52
2219.99	0.68
2220.3	0.48
2220.62	0.48
2220.93	0.6
2221.25	0.48
2221.56	0.52
2221.88	0.56
2222.19	0.4
2222.51	0.36
2222.82	-1.04
2223.14	-1.24
2223.45	-1.28
2223.77	-1.32
2224.08	-1.4
2224.4	0
2224.71	0
2225.03	0.2
2225.34	0.48
2225.66	-0.92
2225.97	-0.92
2226.29	-0.92
2226.6	-1.04
2226.92	-1.28
2227.23	0.28
2227.55	0.44
2227.86	0.44
2228.18	0.36
2228.49	0.44
2228.81	0.44
2229.12	0.84
2229.44	0.96
2229.75	1.2
2230.07	1.08
2230.38	0.92
2230.69	0.44
2231.01	0.32
2231.32	0.4
2231.64	0.44
2231.95	0.48
2232.27	0.48
2232.58	0.72
2232.9	0.4
2233.21	0.56
2233.52	0.6
2233.84	0.52
2234.15	0.4
2234.47	0.4
2234.78	0.32
2235.1	0.24
2235.41	0.28
2235.72	0.2
2236.04	0.32
2236.35	0.2
2236.67	-0.12
2236.98	-0.04
2237.29	-0.08
2237.61	-0.2
2237.92	-0.2
2238.24	0.56
2238.55	0.44
2238.86	0.44
2239.18	0.48
2239.49	-0.32
2239.8	-0.56
2240.12	-0.36
2240.43	-0.36
2240.75	-0.4
2241.06	0.4
2241.37	0.2
2241.69	0
2242	0.04
2242.31	0.04
2242.63	0.24
2242.94	0.24
2243.26	0.04
2243.57	0.12
2243.88	0.12
2244.2	-0.08
2244.51	-0.08
2244.82	0.12
2245.14	0
2245.45	0.04
2245.76	0.04
2246.08	0.2
2246.39	0.44
2246.7	0.44
2247.02	0.4
2247.33	0.4
2247.64	0.24
2247.96	0
2248.27	0.04
2248.58	-0.96
2248.9	-0.92
2249.21	-0.92
2249.52	-0.84
2249.83	-0.88
2250.15	0.12
2250.46	0.16
2250.77	0.28
2251.09	0.2
2251.4	0.2
2251.71	0.32
2252.03	0.24
2252.34	0.12
2252.65	0.12
2252.96	0.12
2253.28	0.12
2253.59	0.12
2253.9	0.24
2254.21	0.24
2254.53	0.24
2254.84	-0.28
2255.15	-0.28
2255.47	-0.36
2255.78	-0.36
2256.09	-0.36
2256.4	0.16
2256.72	0.16
2257.03	0.12
2257.34	0.12
2257.65	0.12
2257.97	0
2258.28	0
2258.59	0
2258.9	0
2259.22	0.04
2259.53	0.04
2259.84	0.04
2260.15	0.04
2260.46	0.04
2260.78	0.2
2261.09	0.2
2261.4	0.4
2261.71	0.4
2262.03	0.4
2262.34	0.2
2262.65	0.36
2262.96	0.16
2263.27	0.32
2263.59	0.32
2263.9	0.36
2264.21	0.24
2264.52	0.32
2264.83	0.16
2265.15	0.16
2265.46	0.12
2265.77	0.08
2266.08	0.04
2266.39	0.04
2266.7	0.04
2267.02	0.12
2267.33	-0.28
2267.64	-0.32
2267.95	-0.12
2268.26	-0.08
2268.57	-0.16
2268.89	0.24
2269.2	0.24
2269.51	0.04
2269.82	0.04
2270.13	0.2
2270.44	0.2
2270.76	-0.2
2271.07	-0.2
2271.38	-0.68
2271.69	-0.76
2272	-0.72
2272.31	-0.52
2272.62	-1.32
2272.93	-0.84
2273.25	-0.92
2273.56	-0.96
2273.87	-0.56
2274.18	0.28
2274.49	0.24
2274.8	0.36
2275.11	0.36
2275.42	0.2
2275.74	0.16
2276.05	0.24
2276.36	0.12
2276.67	0.12
2276.98	0.12
2277.29	0.12
2277.6	0.04
2277.91	0.04
2278.22	-0.24
2278.53	-0.28
2278.85	-0.28
2279.16	-1.28
2279.47	-1.28
2279.78	-0.96
2280.09	-0.96
2280.4	-0.96
2280.71	0.12
2281.02	0.12
2281.33	0.4
2281.64	0.6
2281.95	0.84
2282.26	0.76
2282.57	0.8
2282.88	0.48
2283.19	0.28
2283.5	0.08
2283.82	0.08
2284.13	0.04
2284.44	0.12
2284.75	-0.36
2285.06	-0.36
2285.37	-0.36
2285.68	-0.36
2285.99	-0.44
2286.3	0.04
2286.61	0
2286.92	0
2287.23	0
2287.54	0.16
2287.85	0.28
2288.16	0.32
2288.47	0.48
2288.78	0.48
2289.09	0.32
2289.4	0.28
2289.71	0.44
2290.02	0.28
2290.33	0.44
2290.64	0.44
2290.95	0.28
2291.26	0.08
2291.57	0.2
2291.88	-0.36
2292.19	-0.36
2292.5	-0.28
2292.81	-0.28
2293.12	-0.4
2293.43	0
2293.74	0
2294.05	0
2294.36	0
2294.67	0
2294.98	0
2295.29	0
2295.6	0
2295.91	0
2296.21	0
2296.52	0
2296.83	0
2297.14	0
2297.45	0
2297.76	0
2298.07	0
2298.38	0
2298.69	0
2299	0
2299.31	0
2299.62	0
2299.93	0
2300.24	0
2300.55	0
2300.85	0
2301.16	0
2301.47	0
2301.78	0
2302.09	0
2302.4	0
2302.71	0
2303.02	0
2303.33	0
2303.64	0
2303.94	0
2304.25	0
2304.56	0
2304.87	0
2305.18	0
2305.49	0
2305.8	0
2306.11	0
2306.42	0
2306.72	0
2307.03	0
2307.34	0
2307.65	0
2307.96	0
2308.27	0
2308.58	0
2308.88	0
2309.19	0
2309.5	0
2309.81	0
2310.12	0
2310.43	0
2310.74	0
2311.04	0
2311.35	0
2311.66	0
2311.97	0
2312.28	0
2312.59	0
2312.89	0
2313.2	0
2313.51	0
2313.82	0
2314.13	0
2314.43	0
2314.74	0
2315.05	0
2315.36	0
2315.67	0
2315.97	0
2316.28	0
2316.59	0
2316.9	0
2317.21	0
2317.51	0
2317.82	0
2318.13	0
2318.44	0
2318.75	0
2319.05	0
2319.36	0
2319.67	0
2319.98	0
2320.28	0
2320.59	0
2320.9	0
2321.21	0
2321.51	0
2321.82	0
2322.13	0
2322.44	0
2322.74	0
2323.05	0
2323.36	0
2323.67	0
2323.97	0
2324.28	0
2324.59	0
2324.9	0
2325.2	0
2325.51	0
2325.82	0
2326.13	0
2326.43	0
2326.74	0
2327.05	0
2327.35	0
2327.66	0
2327.97	0
2328.27	0
2328.58	0
2328.89	0
2329.2	0
2329.5	0
2329.81	0
2330.12	0
2330.42	0
2330.73	0
2331.04	0
2331.34	0
2331.65	0
2331.96	0
2332.26	0
2332.57	0
2332.88	0
2333.18	0
2333.49	0
2333.8	0
2334.1	0
2334.41	0
2334.72	0
2335.02	0
2335.33	0
2335.64	0
2335.94	0
2336.25	0
2336.56	0
2336.86	0
2337.17	0
2337.48	0
2337.78	0
2338.09	0
2338.39	0
2338.7	0
2339.01	0
2339.31	0
2339.62	0
2339.93	0
2340.23	0
2340.54	0
2340.84	0
2341.15	0
2341.46	0
2341.76	0
2342.07	0
2342.37	0
2342.68	0
2342.99	0
2343.29	0
2343.6	0
2343.9	0
2344.21	0
2344.51	0
2344.82	0
2345.13	0
2345.43	0
2345.74	0
2346.04	0
2346.35	0
2346.65	0
2346.96	0
2347.27	0
2347.57	0
2347.88	0
2348.18	0
2348.49	0
2348.79	0
2349.1	0
2349.4	0
2349.71	0
2350.01	0
2350.32	0
2350.63	0
2350.93	0
2351.24	0
2351.54	0
2351.85	0
2352.15	0
2352.46	0
2352.76	0
2353.07	0
2353.37	0
2353.68	0
2353.98	0
2354.29	0
2354.59	0
2354.9	0
2355.2	0
2355.51	0
2355.81	0
2356.12	0
2356.42	0
2356.73	0
2357.03	0
2357.34	0
2357.64	0
2357.95	0
2358.25	0
2358.55	0
2358.86	0
2359.16	0
2359.47	0
2359.77	0
2360.08	0
2360.38	0
2360.69	0
2360.99	0
2361.3	0
2361.6	0
2361.9	0
2362.21	0
2362.51	0
2362.82	0
2363.12	0
2363.43	0
2363.73	0
2364.04	0
2364.34	0
2364.64	0
2364.95	0
2365.25	0
2365.56	0
2365.86	0
2366.16	0
2366.47	0
2366.77	0
2367.08	0
2367.38	0
2367.68	0
2367.99	0
2368.29	0
2368.6	0
2368.9	0
2369.2	0
2369.51	0
2369.81	0
2370.12	0
2370.42	0
2370.72	0
2371.03	0
2371.33	0
2371.63	0
2371.94	0
2372.24	0
2372.55	0
2372.85	0
2373.15	0
2373.46	0
2373.76	0
2374.06	0
2374.37	0
2374.67	0
2374.97	0
2375.28	0
2375.58	0
2375.88	0
2376.19	0
2376.49	0
2376.79	0
2377.1	0
2377.4	0
2377.7	0
2378.01	0
2378.31	0
2378.61	0
2378.92	0
2379.22	0
2379.52	0
2379.82	0
2380.13	0
2380.43	0
2380.73	0
2381.04	0
2381.34	0
2381.64	0
2381.95	0
2382.25	0
2382.55	0
2382.85	0
2383.16	0
2383.46	0
2383.76	0
2384.06	0
2384.37	0
2384.67	0
2384.97	0
2385.28	0
2385.58	0
2385.88	0
2386.18	0
2386.49	0
2386.79	0
2387.09	0
2387.39	0
2387.69	0
2388	0
2388.3	0
2388.6	0
2388.9	0
2389.21	0
2389.51	0
2389.81	0
2390.11	0
2390.42	0
2390.72	0
2391.02	0
2391.32	0
2391.62	0
2391.93	0
2392.23	0
2392.53	0
2392.83	0
2393.13	0
2393.44	0
2393.74	0
2394.04	0
2394.34	0
2394.64	0
2394.95	0
2395.25	0
2395.55	0
2395.85	0
2396.15	0
2396.45	0
2396.76	0
2397.06	0
2397.36	0
2397.66	0
2397.96	0
2398.26	0
2398.57	0
2398.87	0
2399.17	0
2399.47	0
2399.77	0
2400.07	0
2400.37	0
2400.68	0
2400.98	0
2401.28	0
2401.58	0
2401.88	0
2402.18	0
2402.48	0
2402.79	0
2403.09	0
2403.39	0
2403.69	0
2403.99	0
2404.29	0
2404.59	0
2404.89	0
2405.19	0
2405.5	0
2405.8	0
2406.1	0
2406.4	0
2406.7	0
2407	0
2407.3	0
2407.6	0
2407.9	0
2408.2	0
2408.5	0
2408.8	0
2409.11	0
2409.41	0
2409.71	0
2410.01	0
2410.31	0
2410.61	0
2410.91	0
2411.21	0
2411.51	0
2411.81	0
2412.11	0
2412.41	0
2412.71	0
2413.01	0
2413.31	0
2413.61	0
2413.91	0
2414.21	0
2414.51	0
2414.81	0
2415.12	0
2415.42	0
2415.72	0
2416.02	0
2416.32	0
2416.62	0
2416.92	0
2417.22	0
2417.52	0
2417.82	0
2418.12	0
2418.42	0
2418.72	0
2419.02	0
2419.32	0
2419.62	0
2419.92	0
2420.22	0
2420.52	0
2420.82	0
2421.12	0
2421.42	0
2421.71	0
2422.01	0
2422.31	0
2422.61	0
2422.91	0
2423.21	0
2423.51	0
2423.81	0
2424.11	0
2424.41	0
2424.71	0
2425.01	0
2425.31	0
2425.61	0
2425.91	0
2426.21	0
2426.51	0
2426.81	0
2427.11	0
2427.41	0
2427.7	0
2428	0
2428.3	0
2428.6	0
2428.9	0
2429.2	0
2429.5	0
2429.8	0
2430.1	0
2430.4	0
2430.7	0
2430.99	0
2431.29	0
2431.59	0
2431.89	0
2432.19	0
2432.49	0
2432.79	0
2433.09	0
2433.39	0
2433.68	0
2433.98	0
2434.28	0
2434.58	0
2434.88	0
2435.18	0
2435.48	0
2435.78	0
2436.07	0
2436.37	0
2436.67	0
2436.97	0
2437.27	0
2437.57	0
2437.86	0
2438.16	0
2438.46	0
2438.76	0
2439.06	0
2439.36	0
2439.66	0
2439.95	0
2440.25	0
2440.55	0
2440.85	0
2441.15	0
2441.44	0
2441.74	0
2442.04	0
2442.34	0
2442.64	0
2442.93	0
2443.23	0
2443.53	0
2443.83	0
2444.13	0
2444.42	0
2444.72	0
2445.02	0
2445.32	0
2445.62	0
2445.91	0
2446.21	0
2446.51	0
2446.81	0
2447.1	0
2447.4	0
2447.7	0
2448	0
2448.3	0
2448.59	0
2448.89	0
2449.19	0
2449.49	0
2449.78	0
2450.08	0
2450.38	0
2450.68	0
2450.97	0
2451.27	0
2451.57	0
2451.87	0
2452.16	0
2452.46	0
2452.76	0
2453.05	0
2453.35	0
2453.65	0
2453.95	0
2454.24	0
2454.54	0
2454.84	0
2455.13	0
2455.43	0
2455.73	0
2456.03	0
2456.32	0
2456.62	0
2456.92	0
2457.21	0
2457.51	0
2457.81	0
2458.1	0
2458.4	0
2458.7	0
2458.99	0
2459.29	0
2459.59	0
2459.88	0
2460.18	0
2460.48	0
2460.77	0
2461.07	0
2461.37	0
2461.66	0
2461.96	0
2462.26	0
2462.55	0
2462.85	0
2463.15	0
2463.44	0
2463.74	0
2464.04	0
2464.33	0
2464.63	0
2464.92	0
2465.22	0
2465.52	0
2465.81	0
2466.11	0
2466.41	0
2466.7	0
2467	0
2467.29	0
2467.59	0
2467.89	0
2468.18	0
2468.48	0
2468.77	0
2469.07	0
2469.37	0
2469.66	0
2469.96	0
2470.25	0
2470.55	0
2470.84	0
2471.14	0
2471.44	0
2471.73	0
2472.03	0
2472.32	0
2472.62	0
2472.91	0
2473.21	0
2473.51	0
2473.8	0
2474.1	0
2474.39	0
2474.69	0
2474.98	0
2475.28	0
2475.57	0
2475.87	0
2476.17	0
2476.46	0
2476.76	0
2477.05	0
2477.35	0
2477.64	0
2477.94	0
2478.23	0
2478.53	0
2478.82	0
2479.12	0
2479.41	0
2479.71	0
2480	0
2480.3	0
2480.59	0
2480.89	0
2481.18	0
2481.48	0
2481.77	0
2482.07	0
2482.36	0
2482.66	0
2482.95	0
2483.25	0
2483.54	0
2483.84	0
2484.13	0
2484.43	0
2484.72	0
2485.02	0
2485.31	0
2485.6	0
2485.9	0
2486.19	0
2486.49	0
2486.78	0
2487.08	0
2487.37	0
2487.67	0
2487.96	0
2488.26	0
2488.55	0
2488.84	0
2489.14	0
2489.43	0
2489.73	0
2490.02	0
2490.32	0
2490.61	0
2490.9	0
2491.2	0
2491.49	0
2491.79	0
2492.08	0
2492.37	0
2492.67	0
2492.96	0
2493.26	0
2493.55	0
2493.84	0
2494.14	0
2494.43	0
2494.73	0
2495.02	0
2495.31	0
2495.61	0
2495.9	0
2496.2	0
2496.49	0
2496.78	0
2497.08	0
2497.37	0
2497.66	0
2497.96	0
2498.25	0
2498.54	0
2498.84	0
2499.13	0
2499.43	0
2499.72	0
2500.01	0
2500.31	0
2500.6	0
2500.89	0
2501.19	0
2501.48	0
2501.77	0
2502.07	0
2502.36	0
2502.65	0
2502.95	0
2503.24	0
2503.53	0
2503.82	0
2504.12	0
2504.41	0
2504.7	0
2505	0
2505.29	0
2505.58	0
2505.88	0
2506.17	0
2506.46	0
2506.76	0
2507.05	0
2507.34	0
2507.63	0
2507.93	0
2508.22	0
2508.51	0
2508.8	0
2509.1	0
2509.39	0
2509.68	0
2509.98	0
2510.27	0
2510.56	0
2510.85	0
2511.15	0
2511.44	0
2511.73	0
2512.02	0
2512.32	0
2512.61	0
2512.9	0
2513.19	0
2513.49	0
2513.78	0
2514.07	0
2514.36	0
2514.65	0
2514.95	0
2515.24	0
2515.53	0
2515.82	0
2516.12	0
2516.41	0
2516.7	0
2516.99	0
2517.28	0
2517.58	0
2517.87	0
2518.16	0
2518.45	0
2518.74	0
2519.04	0
2519.33	0
2519.62	0
2519.91	0
2520.2	0
2520.5	0
2520.79	0
2521.08	0
2521.37	0
2521.66	0
2521.95	0
2522.25	0
2522.54	0
2522.83	0
2523.12	0
2523.41	0
2523.7	0
2523.99	0
2524.29	0
2524.58	0
2524.87	0
2525.16	0
2525.45	0
2525.74	0
2526.03	0
2526.33	0
2526.62	0
2526.91	0
2527.2	0
2527.49	0
2527.78	0
2528.07	0
2528.36	0
2528.66	0
2528.95	0
2529.24	0
2529.53	0
2529.82	0
2530.11	0
2530.4	0
2530.69	0
2530.98	0
2531.27	0
2531.57	0
2531.86	0
2532.15	0
2532.44	0
2532.73	0
2533.02	0
2533.31	0
2533.6	0
2533.89	0
2534.18	0
2534.47	0
2534.76	0
2535.05	0
2535.35	0
2535.64	0
2535.93	0
2536.22	0
2536.51	0
2536.8	0
2537.09	0
2537.38	0
2537.67	0
2537.96	0
2538.25	0
2538.54	0
2538.83	0
2539.12	0
2539.41	0
2539.7	0
2539.99	0
2540.28	0
2540.57	0
2540.86	0
2541.15	0
2541.44	0
2541.73	0
2542.02	0
2542.31	0
2542.6	0
2542.89	0
2543.18	0
2543.47	0
2543.76	0
2544.05	0
2544.34	0
2544.63	0
2544.92	0
2545.21	0
2545.5	0
2545.79	0
2546.08	0
2546.37	0
2546.66	0
2546.95	0
2547.24	0
2547.53	0
2547.82	0
2548.11	0
2548.4	0
2548.69	0
2548.98	0
2549.27	0
2549.55	0
2549.84	0
2550.13	0
2550.42	0
2550.71	0
2551	0
2551.29	0
2551.58	0
2551.87	0
2552.16	0
2552.45	0
2552.74	0
2553.03	0
2553.31	0
2553.6	0
2553.89	0
2554.18	0
2554.47	0
2554.76	0
2555.05	0
2555.34	0
2555.63	0
2555.92	0
2556.2	0
2556.49	0
2556.78	0
2557.07	0
2557.36	0
2557.65	0
2557.94	0
2558.23	0
2558.51	0
2558.8	0
2559.09	0
2559.38	0
2559.67	0
2559.96	0
2560.25	0
2560.53	0
2560.82	0
2561.11	0
2561.4	0
2561.69	0
2561.98	0
2562.27	0
2562.55	0
2562.84	0
2563.13	0
2563.42	0
2563.71	0
2564	0
2564.28	0
2564.57	0
2564.86	0
2565.15	0
2565.44	0
2565.72	0
2566.01	0
2566.3	0
2566.59	0
2566.88	0
2567.16	0
2567.45	0
2567.74	0
2568.03	0
2568.32	0
2568.6	0
2568.89	0
2569.18	0
2569.47	0
2569.75	0

