Source: Spectrum Viewer

Chart: Pulse Spectrum

Series: 
Wavelength (nm)	S (a.u.)
1179.9	0
1180.29	0
1180.68	0
1181.06	0
1181.45	0
1181.83	0
1182.22	0
1182.6	0
1182.99	0
1183.38	0
1183.76	0
1184.15	0
1184.53	0
1184.92	0
1185.3	0
1185.69	0
1186.07	0
1186.46	0
1186.85	0
1187.23	0
1187.62	0
1188	0
1188.39	0
1188.77	0
1189.16	0
1189.54	0
1189.93	0
1190.31	0
1190.7	0
1191.08	0
1191.47	0
1191.85	0
1192.24	0
1192.62	0
1193.01	0
1193.39	0
1193.78	0
1194.16	0
1194.55	0
1194.93	0
1195.32	0
1195.7	0
1196.09	0
1196.47	0
1196.86	0
1197.24	0
1197.63	0
1198.01	0
1198.4	0
1198.78	0
1199.16	0
1199.55	0
1199.93	0
1200.32	0
1200.7	0
1201.09	0
1201.47	0
1201.86	0
1202.24	0
1202.63	0
1203.01	0
1203.39	0
1203.78	0
1204.16	0
1204.55	0
1204.93	0
1205.32	0
1205.7	0
1206.08	0
1206.47	0
1206.85	0
1207.24	0
1207.62	0
1208	0
1208.39	0
1208.77	0
1209.16	0
1209.54	0
1209.92	0
1210.31	0
1210.69	0
1211.08	0
1211.46	0
1211.84	0
1212.23	0
1212.61	0
1213	0
1213.38	0
1213.76	0
1214.15	0
1214.53	0
1214.91	0
1215.3	0
1215.68	0
1216.06	0
1216.45	0
1216.83	0
1217.22	0
1217.6	0
1217.98	0
1218.37	0
1218.75	0
1219.13	0
1219.52	0
1219.9	0
1220.28	0
1220.67	0
1221.05	0
1221.43	0
1221.82	0
1222.2	0
1222.58	0
1222.97	0
1223.35	0
1223.73	0
1224.11	0
1224.5	0
1224.88	0
1225.26	0
1225.65	0
1226.03	0
1226.41	0
1226.8	0
1227.18	0
1227.56	0
1227.94	0
1228.33	0
1228.71	0
1229.09	0
1229.47	0
1229.86	0
1230.24	0
1230.62	0
1231.01	0
1231.39	0
1231.77	0
1232.15	0
1232.54	0
1232.92	0
1233.3	0
1233.68	0
1234.07	0
1234.45	0
1234.83	0
1235.21	0
1235.6	0
1235.98	0
1236.36	0
1236.74	0
1237.12	0
1237.51	0
1237.89	0
1238.27	0
1238.65	0
1239.04	0
1239.42	0
1239.8	0
1240.18	0
1240.56	0
1240.95	0
1241.33	0
1241.71	0
1242.09	0
1242.47	0
1242.86	0
1243.24	0
1243.62	0
1244	0
1244.38	0
1244.77	0
1245.15	0
1245.53	0
1245.91	0
1246.29	0
1246.67	0
1247.06	0
1247.44	0
1247.82	0
1248.2	0
1248.58	0
1248.96	0
1249.34	0
1249.73	0
1250.11	0
1250.49	0
1250.87	0
1251.25	0
1251.63	0
1252.01	0
1252.4	0
1252.78	0
1253.16	0
1253.54	0
1253.92	0
1254.3	0
1254.68	0
1255.06	0
1255.45	0
1255.83	0
1256.21	0
1256.59	0
1256.97	0
1257.35	0
1257.73	0
1258.11	0
1258.49	0
1258.87	0
1259.26	0
1259.64	0
1260.02	0
1260.4	0
1260.78	0
1261.16	0
1261.54	0
1261.92	0
1262.3	0
1262.68	0
1263.06	0
1263.44	0
1263.82	0
1264.21	0
1264.59	0
1264.97	0
1265.35	0
1265.73	0
1266.11	0
1266.49	0
1266.87	0
1267.25	0
1267.63	0
1268.01	0
1268.39	0
1268.77	0
1269.15	0
1269.53	0
1269.91	0
1270.29	0
1270.67	0
1271.05	0
1271.43	0
1271.81	0
1272.19	0
1272.57	0
1272.95	0
1273.33	0
1273.71	0
1274.09	0
1274.47	0
1274.85	0
1275.23	0
1275.61	0
1275.99	0
1276.37	0
1276.75	0
1277.13	0
1277.51	0
1277.89	0
1278.27	0
1278.65	0
1279.03	0
1279.41	0
1279.79	0
1280.17	0
1280.55	0
1280.93	0
1281.31	0
1281.69	0
1282.07	0
1282.45	0
1282.82	0
1283.2	0
1283.58	0
1283.96	0
1284.34	0
1284.72	0
1285.1	0
1285.48	0
1285.86	0
1286.24	0
1286.62	0
1287	0
1287.38	0
1287.75	0
1288.13	0
1288.51	0
1288.89	0
1289.27	0
1289.65	0
1290.03	0
1290.41	0
1290.79	0
1291.17	0
1291.54	0
1291.92	0
1292.3	0
1292.68	0
1293.06	0
1293.44	0
1293.82	0
1294.2	0
1294.57	0
1294.95	0
1295.33	0
1295.71	0
1296.09	0
1296.47	0
1296.85	0
1297.22	0
1297.6	0
1297.98	0
1298.36	0
1298.74	0
1299.12	0
1299.5	0
1299.87	0
1300.25	0
1300.63	0
1301.01	0
1301.39	0
1301.77	0
1302.14	0
1302.52	0
1302.9	0
1303.28	0
1303.66	0
1304.03	0
1304.41	0
1304.79	0
1305.17	0
1305.55	0
1305.92	0
1306.3	0
1306.68	0
1307.06	0
1307.44	0
1307.81	0
1308.19	0
1308.57	0
1308.95	0
1309.32	0
1309.7	0
1310.08	0
1310.46	0
1310.84	0
1311.21	0
1311.59	0
1311.97	0
1312.35	0
1312.72	0
1313.1	0
1313.48	0
1313.86	0
1314.23	0
1314.61	0
1314.99	0
1315.37	0
1315.74	0
1316.12	0
1316.5	0
1316.87	0
1317.25	0
1317.63	0
1318.01	0
1318.38	0
1318.76	0
1319.14	0
1319.52	0
1319.89	0
1320.27	0
1320.65	0
1321.02	0
1321.4	0
1321.78	0
1322.15	0
1322.53	0
1322.91	0
1323.29	0
1323.66	0
1324.04	0
1324.42	0
1324.79	0
1325.17	0
1325.55	0
1325.92	0
1326.3	0
1326.68	0
1327.05	0
1327.43	0
1327.81	0
1328.18	0
1328.56	0
1328.94	0
1329.31	0
1329.69	0
1330.06	0
1330.44	0
1330.82	0
1331.19	0
1331.57	0
1331.95	0
1332.32	0
1332.7	0
1333.08	0
1333.45	0
1333.83	0
1334.2	0
1334.58	0
1334.96	0
1335.33	0
1335.71	0
1336.08	0
1336.46	0
1336.84	0
1337.21	0
1337.59	0
1337.96	0
1338.34	0
1338.72	0
1339.09	0
1339.47	0
1339.84	0
1340.22	0
1340.6	0
1340.97	0
1341.35	0
1341.72	0
1342.1	0
1342.47	0
1342.85	0
1343.23	0
1343.6	0
1343.98	0
1344.35	0
1344.73	0
1345.1	0
1345.48	0
1345.85	0
1346.23	0
1346.61	0
1346.98	0
1347.36	0
1347.73	0
1348.11	0
1348.48	0
1348.86	0
1349.23	0
1349.61	0
1349.98	0
1350.36	0
1350.73	0
1351.11	0
1351.48	0
1351.86	0
1352.23	0
1352.61	0
1352.98	0
1353.36	0
1353.73	0
1354.11	0
1354.48	0
1354.86	0
1355.23	0
1355.61	0
1355.98	0
1356.36	0
1356.73	0
1357.11	0
1357.48	0
1357.86	0
1358.23	0
1358.61	0
1358.98	0
1359.35	0
1359.73	0
1360.1	0
1360.48	0
1360.85	0
1361.23	0
1361.6	0
1361.98	0
1362.35	0
1362.72	0
1363.1	0
1363.47	0
1363.85	0
1364.22	0
1364.6	0
1364.97	0
1365.34	0
1365.72	0
1366.09	0
1366.47	0
1366.84	0
1367.22	0
1367.59	0
1367.96	0
1368.34	0
1368.71	0
1369.09	0
1369.46	-0.96
1369.83	-0.92
1370.21	-0.92
1370.58	-0.88
1370.96	-0.88
1371.33	0.08
1371.7	0.04
1372.08	0.04
1372.45	0
1372.82	0
1373.2	0
1373.57	0
1373.95	0
1374.32	0
1374.69	0
1375.07	0
1375.44	0.12
1375.81	0.12
1376.19	0.12
1376.56	0.12
1376.93	0.16
1377.31	0.04
1377.68	0.04
1378.05	0.04
1378.43	0.04
1378.8	0
1379.17	0
1379.55	0.04
1379.92	0.04
1380.29	0.12
1380.67	0.12
1381.04	0.12
1381.41	0.08
1381.79	0.12
1382.16	0.04
1382.53	0.04
1382.91	-0.96
1383.28	-0.96
1383.65	-1
1384.03	-1
1384.4	-0.96
1384.77	0.04
1385.14	0.04
1385.52	0.04
1385.89	0.04
1386.26	0.08
1386.64	0.08
1387.01	0.08
1387.38	0.16
1387.75	0.24
1388.13	0.16
1388.5	0.16
1388.87	0.16
1389.25	0.08
1389.62	-0.2
1389.99	-0.4
1390.36	-0.4
1390.74	-0.4
1391.11	-0.4
1391.48	-0.12
1391.85	0.08
1392.23	0.16
1392.6	0.16
1392.97	0.16
1393.34	0.12
1393.72	0.12
1394.09	0.04
1394.46	0.04
1394.83	0.04
1395.21	0
1395.58	0
1395.95	0
1396.32	0
1396.69	0
1397.07	0
1397.44	0
1397.81	0
1398.18	0
1398.55	0
1398.93	0.2
1399.3	0.2
1399.67	0.2
1400.04	0.2
1400.41	0.2
1400.79	0.04
1401.16	0.12
1401.53	0.16
1401.9	0.16
1402.27	0.16
1402.65	0.12
1403.02	0.04
1403.39	0
1403.76	-0.36
1404.13	-0.36
1404.51	-0.36
1404.88	-0.16
1405.25	-0.16
1405.62	0.2
1405.99	0.2
1406.36	0.44
1406.74	0.24
1407.11	0.24
1407.48	0.24
1407.85	-0.96
1408.22	-1.2
1408.59	-1.2
1408.96	-1.08
1409.34	-1
1409.71	0.2
1410.08	0.2
1410.45	0.2
1410.82	0.08
1411.19	0.04
1411.56	0.16
1411.93	0.16
1412.31	0.16
1412.68	0.16
1413.05	0.12
1413.42	0
1413.79	0
1414.16	-0.16
1414.53	-0.16
1414.9	-0.36
1415.27	-0.36
1415.65	-0.36
1416.02	0.04
1416.39	0.04
1416.76	0.24
1417.13	0.24
1417.5	0.24
1417.87	0
1418.24	0
1418.61	0
1418.98	0.12
1419.35	0.12
1419.73	0.16
1420.1	0.16
1420.47	0.16
1420.84	0.04
1421.21	0.04
1421.58	0
1421.95	0
1422.32	0
1422.69	0.04
1423.06	0.04
1423.43	0.04
1423.8	0.04
1424.17	0.04
1424.54	0.16
1424.91	0.16
1425.28	0.16
1425.65	0.16
1426.02	0.16
1426.39	0
1426.76	-0.6
1427.14	-0.6
1427.51	-0.6
1427.88	-0.6
1428.25	-0.56
1428.62	0.04
1428.99	0.04
1429.36	0.04
1429.73	0.04
1430.1	0.12
1430.47	0.12
1430.84	0.24
1431.21	0.24
1431.58	0.24
1431.95	0.12
1432.32	-0.08
1432.69	-0.2
1433.06	-0.2
1433.43	-0.2
1433.8	-0.16
1434.17	0.04
1434.54	0.04
1434.91	0.12
1435.28	0.12
1435.64	0.12
1436.01	-0.48
1436.38	-0.48
1436.75	-0.56
1437.12	-0.4
1437.49	-0.44
1437.86	0.16
1438.23	0.16
1438.6	0.16
1438.97	0
1439.34	0
1439.71	0
1440.08	0
1440.45	0
1440.82	-0.56
1441.19	-0.56
1441.56	-0.56
1441.93	-0.44
1442.3	-0.36
1442.67	-1.4
1443.03	-1.32
1443.4	-1.32
1443.77	-1.44
1444.14	-1.4
1444.51	0.2
1444.88	0.12
1445.25	0.12
1445.62	0.12
1445.99	0
1446.36	0.08
1446.73	0.08
1447.09	0.08
1447.46	0.08
1447.83	0.08
1448.2	0.16
1448.57	-0.04
1448.94	-0.04
1449.31	-0.04
1449.68	2.4425e-17
1450.05	-0.16
1450.41	0.04
1450.78	-0.36
1451.15	-0.36
1451.52	-0.4
1451.89	-0.4
1452.26	-0.4
1452.63	0.04
1453	0.04
1453.36	0.04
1453.73	0.12
1454.1	0.2
1454.47	0.16
1454.84	0.16
1455.21	0.16
1455.57	-0.24
1455.94	-0.32
1456.31	-0.28
1456.68	-0.28
1457.05	-0.28
1457.42	0.04
1457.78	0.04
1458.15	0
1458.52	0.16
1458.89	0.16
1459.26	0.16
1459.63	0.16
1459.99	0.16
1460.36	0
1460.73	0.04
1461.1	0.04
1461.47	0.04
1461.83	0.04
1462.2	0.04
1462.57	0
1462.94	0
1463.31	0.2
1463.67	0.2
1464.04	0
1464.41	0
1464.78	-0.6
1465.15	-0.8
1465.51	-0.8
1465.88	-0.6
1466.25	-0.6
1466.62	0
1466.98	0.04
1467.35	0.04
1467.72	0.08
1468.09	0.08
1468.46	0.08
1468.82	0.04
1469.19	0.04
1469.56	0
1469.93	0
1470.29	0.08
1470.66	0.08
1471.03	0.32
1471.4	0.32
1471.76	0.32
1472.13	0.24
1472.5	0.36
1472.86	0.2
1473.23	0.2
1473.6	0.2
1473.97	0.2
1474.33	0.08
1474.7	0
1475.07	0
1475.44	0
1475.8	-0.08
1476.17	-0.08
1476.54	-0.08
1476.9	-0.08
1477.27	0.08
1477.64	0.2
1478	0.2
1478.37	0.2
1478.74	0.24
1479.11	0.08
1479.47	0.04
1479.84	0.28
1480.21	0.36
1480.57	0.32
1480.94	0.36
1481.31	0.36
1481.67	0.12
1482.04	0.04
1482.41	0.04
1482.77	0
1483.14	0.12
1483.51	0.12
1483.87	0.12
1484.24	0.12
1484.61	0.12
1484.97	0
1485.34	0
1485.71	-1
1486.07	-0.92
1486.44	-0.92
1486.81	-0.92
1487.17	-0.76
1487.54	0.24
1487.9	0.16
1488.27	0.16
1488.64	-0.04
1489	-0.2
1489.37	-0.2
1489.74	-0.2
1490.1	-0.04
1490.47	0.16
1490.83	0.16
1491.2	0.36
1491.57	0.36
1491.93	0.2
1492.3	0.2
1492.66	0.2
1493.03	0
1493.4	0.08
1493.76	0.08
1494.13	0.08
1494.49	0.24
1494.86	0.28
1495.23	0.28
1495.59	0.28
1495.96	-0.96
1496.32	-1.12
1496.69	-1.12
1497.06	-1.2
1497.42	-1.72
1497.79	-0.32
1498.15	-0.12
1498.52	-0.16
1498.88	-0.16
1499.25	0.36
1499.62	-0.2
1499.98	-0.4
1500.35	-0.4
1500.71	-0.4
1501.08	-0.24
1501.44	0.16
1501.81	0.16
1502.17	0.16
1502.54	0.16
1502.9	0
1503.27	0
1503.64	0
1504	0.08
1504.37	0.08
1504.73	0.08
1505.1	0.08
1505.46	0.08
1505.83	0
1506.19	0
1506.56	0
1506.92	0.4
1507.29	0.4
1507.65	0.4
1508.02	0.4
1508.38	0.4
1508.75	0.08
1509.11	0.08
1509.48	0.08
1509.84	0.12
1510.21	0.12
1510.57	0.04
1510.94	0.04
1511.3	0.04
1511.67	0
1512.03	0
1512.4	0.04
1512.76	0.04
1513.13	-0.96
1513.49	-1.16
1513.85	-1.16
1514.22	-1.12
1514.58	-1.12
1514.95	-0.12
1515.31	0.08
1515.68	0.08
1516.04	0
1516.41	0
1516.77	0.56
1517.14	0.56
1517.5	0.56
1517.86	0.56
1518.23	0.68
1518.59	0.12
1518.96	0.12
1519.32	0.12
1519.69	0.12
1520.05	0
1520.41	0
1520.78	0.04
1521.14	0.04
1521.51	0.08
1521.87	0.08
1522.24	0.32
1522.6	0.28
1522.96	0.28
1523.33	0.24
1523.69	0.24
1524.06	0.04
1524.42	0.04
1524.78	0.04
1525.15	0.04
1525.51	0.04
1525.88	0
1526.24	0
1526.6	0
1526.97	0
1527.33	0
1527.69	0
1528.06	0
1528.42	0.08
1528.79	0.08
1529.15	-0.72
1529.51	-0.72
1529.88	-0.72
1530.24	-0.8
1530.6	-0.8
1530.97	0
1531.33	0
1531.69	0
1532.06	0.08
1532.42	0.08
1532.78	0.08
1533.15	0.08
1533.51	0.08
1533.87	0.16
1534.24	0.16
1534.6	0.2
1534.96	0.2
1535.33	0.2
1535.69	0.04
1536.05	0.2
1536.42	0.24
1536.78	0.24
1537.14	0.44
1537.51	0.64
1537.87	0.72
1538.23	0.64
1538.6	0.72
1538.96	0.68
1539.32	0.48
1539.68	0.24
1540.05	0.24
1540.41	0.16
1540.77	0
1541.14	0.36
1541.5	0.36
1541.86	0.36
1542.23	0.36
1542.59	0.48
1542.95	0.12
1543.31	0.24
1543.68	0.48
1544.04	0.48
1544.4	0.36
1544.76	0.4
1545.13	0.28
1545.49	0.32
1545.85	0.32
1546.21	0.32
1546.58	0.32
1546.94	0.32
1547.3	0.28
1547.66	0.28
1548.03	0.28
1548.39	0.32
1548.75	0.36
1549.11	0.24
1549.48	0.24
1549.84	0.24
1550.2	0.48
1550.56	0.44
1550.93	0.32
1551.29	0.32
1551.65	0.32
1552.01	0
1552.37	0
1552.74	0.04
1553.1	0.2
1553.46	0.64
1553.82	0.64
1554.18	0.72
1554.55	0.92
1554.91	0.76
1555.27	0.36
1555.63	0.36
1555.99	0.4
1556.36	0.28
1556.72	-1.24
1557.08	-1.28
1557.44	-1.28
1557.8	-1.4
1558.17	-1.52
1558.53	0
1558.89	0
1559.25	0
1559.61	0
1559.97	0
1560.34	0
1560.7	0
1561.06	0
1561.42	0
1561.78	0.04
1562.14	-0.36
1562.5	-0.24
1562.87	-0.24
1563.23	-0.24
1563.59	-0.48
1563.95	-0.04
1564.31	-0.12
1564.67	-0.12
1565.03	-0.12
1565.4	0.08
1565.76	0.04
1566.12	0
1566.48	0.4
1566.84	0.4
1567.2	0.44
1567.56	0.24
1567.92	0.24
1568.29	-0.16
1568.65	-0.12
1569.01	-0.16
1569.37	-0.36
1569.73	-0.36
1570.09	-0.36
1570.45	-0.24
1570.81	-0.24
1571.17	0.16
1571.53	0.16
1571.89	0.16
1572.26	0.12
1572.62	0.2
1572.98	0.28
1573.34	0.28
1573.7	0.32
1574.06	0.2
1574.42	0.12
1574.78	-0.16
1575.14	-0.16
1575.5	-0.2
1575.86	-1
1576.22	-0.96
1576.58	-0.64
1576.94	-0.64
1577.3	-0.64
1577.67	0.16
1578.03	0.36
1578.39	0.24
1578.75	0.28
1579.11	0.56
1579.47	0.56
1579.83	0.4
1580.19	0.4
1580.55	0.36
1580.91	0.08
1581.27	0.08
1581.63	0
1581.99	0
1582.35	0
1582.71	0
1583.07	0.12
1583.43	0.12
1583.79	0.4
1584.15	0.44
1584.51	0.6
1584.87	0.48
1585.23	0.48
1585.59	0.4
1585.95	0.36
1586.31	0.36
1586.67	0.36
1587.03	0.36
1587.39	0.16
1587.75	0.44
1588.11	0.28
1588.47	0.32
1588.83	0.32
1589.19	0.4
1589.55	0.12
1589.91	0.4
1590.27	0.36
1590.63	0.36
1590.99	0.28
1591.35	0.8
1591.71	0.52
1592.07	0.6
1592.42	0.6
1592.78	0.8
1593.14	0.28
1593.5	0.28
1593.86	0.2
1594.22	0.2
1594.58	0
1594.94	0.08
1595.3	0.08
1595.66	0.08
1596.02	0.08
1596.38	0.16
1596.74	0.12
1597.1	0.12
1597.46	0.16
1597.81	0.2
1598.17	0.12
1598.53	0.44
1598.89	0.64
1599.25	0.96
1599.61	0.92
1599.97	0.96
1600.33	0.64
1600.69	0.48
1601.05	0.12
1601.4	0.12
1601.76	-0.28
1602.12	-0.28
1602.48	-0.32
1602.84	-0.32
1603.2	-0.32
1603.56	0.12
1603.92	0.08
1604.28	0.08
1604.63	0.08
1604.99	0.16
1605.35	0.08
1605.71	0.08
1606.07	0.16
1606.43	0.36
1606.79	0.28
1607.14	0.32
1607.5	0.32
1607.86	0.24
1608.22	0.28
1608.58	0.4
1608.94	0.52
1609.29	0.52
1609.65	0.32
1610.01	0.28
1610.37	0.32
1610.73	0.16
1611.09	0.2
1611.44	0.48
1611.8	0.28
1612.16	0.12
1612.52	0.12
1612.88	0.08
1613.24	0
1613.59	0
1613.95	0
1614.31	0
1614.67	0
1615.03	0.24
1615.38	0.24
1615.74	0.24
1616.1	0.24
1616.46	0.24
1616.82	0
1617.17	0
1617.53	0
1617.89	0
1618.25	0
1618.6	0.16
1618.96	0.28
1619.32	0.28
1619.68	0.28
1620.04	0.32
1620.39	-0.04
1620.75	-0.16
1621.11	-0.16
1621.47	-0.16
1621.82	-0.2
1622.18	0.08
1622.54	0.08
1622.9	0.32
1623.25	-0.56
1623.61	-0.56
1623.97	-0.64
1624.33	-0.64
1624.68	-1.08
1625.04	-0.2
1625.4	-0.2
1625.75	-0.8
1626.11	-0.8
1626.47	-0.36
1626.83	-0.36
1627.18	-0.36
1627.54	0.24
1627.9	0.24
1628.26	0.04
1628.61	0.28
1628.97	0.28
1629.33	0.28
1629.68	0.28
1630.04	0.52
1630.4	-0.24
1630.75	0.24
1631.11	0.24
1631.47	0.08
1631.83	-0.2
1632.18	0.64
1632.54	0.16
1632.9	0.16
1633.25	0.32
1633.61	0.32
1633.97	0
1634.32	0
1634.68	0
1635.04	0.04
1635.39	0.04
1635.75	0.04
1636.11	0.04
1636.46	0.04
1636.82	0
1637.18	0
1637.53	0
1637.89	0
1638.25	0
1638.6	0.2
1638.96	0.2
1639.31	0.2
1639.67	0.2
1640.03	0.28
1640.38	0.12
1640.74	0.12
1641.1	0.2
1641.45	0.2
1641.81	0.12
1642.16	0.08
1642.52	0.08
1642.88	0
1643.23	-0.6
1643.59	-0.6
1643.95	-0.6
1644.3	-0.52
1644.66	-0.52
1645.01	0.08
1645.37	0.08
1645.73	0.08
1646.08	0
1646.44	0
1646.79	-0.6
1647.15	-0.6
1647.51	-0.6
1647.86	-0.6
1648.22	-0.6
1648.57	-0.8
1648.93	-0.8
1649.28	-0.8
1649.64	-0.8
1650	-0.76
1650.35	0.04
1650.71	0.24
1651.06	0.24
1651.42	0.24
1651.77	0
1652.13	0.04
1652.48	-0.08
1652.84	-0.08
1653.2	-0.08
1653.55	0.12
1653.91	0.12
1654.26	0.04
1654.62	0.04
1654.97	0.04
1655.33	0.04
1655.68	0
1656.04	0
1656.39	0
1656.75	0
1657.1	0.04
1657.46	0.04
1657.81	0.04
1658.17	0.04
1658.52	0.04
1658.88	0
1659.23	0
1659.59	0
1659.94	0
1660.3	0
1660.65	0
1661.01	0
1661.36	0
1661.72	0
1662.07	0
1662.43	0
1662.78	0
1663.14	0
1663.49	0
1663.85	0.04
1664.2	0.04
1664.56	0.04
1664.91	-1.72
1665.27	-1.68
1665.62	-1.72
1665.98	-1.72
1666.33	-1.44
1666.69	0.32
1667.04	0.28
1667.39	0.32
1667.75	0.68
1668.1	0.64
1668.46	0.84
1668.81	0.84
1669.17	0.88
1669.52	0.52
1669.88	0.32
1670.23	0.28
1670.58	0.68
1670.94	1.04
1671.29	1.28
1671.65	1.48
1672	1.44
1672.36	1.12
1672.71	0.68
1673.06	0.44
1673.42	0
1673.77	-0.08
1674.13	-0.16
1674.48	-0.16
1674.83	0.08
1675.19	0.6
1675.54	0.56
1675.9	0.56
1676.25	0.56
1676.6	0.36
1676.96	0.2
1677.31	0.32
1677.67	0.4
1678.02	0.6
1678.37	1
1678.73	0.84
1679.08	1
1679.43	1.2
1679.79	1
1680.14	1.2
1680.5	1.08
1680.85	0.84
1681.2	0.64
1681.56	0.92
1681.91	0.44
1682.26	0.68
1682.62	0.68
1682.97	0.88
1683.32	0.88
1683.68	1.12
1684.03	1
1684.38	1.12
1684.74	1.36
1685.09	1.32
1685.44	1.04
1685.8	1.16
1686.15	1.12
1686.5	0.6
1686.86	0.48
1687.21	0.52
1687.56	0.64
1687.92	0.72
1688.27	0.72
1688.62	0.88
1688.98	0.84
1689.33	0.6
1689.68	0.76
1690.03	1.04
1690.39	1.04
1690.74	0.92
1691.09	0.92
1691.45	0.36
1691.8	0.08
1692.15	-0.16
1692.5	0.2
1692.86	0.48
1693.21	0.68
1693.56	0.84
1693.92	1.2
1694.27	0.24
1694.62	2.4425e-17
1694.97	2.4425e-17
1695.33	0.12
1695.68	-0.08
1696.03	0.6
1696.38	0.68
1696.74	0.68
1697.09	0.2
1697.44	0.28
1697.79	0.56
1698.15	0.44
1698.5	0.52
1698.85	0.72
1699.2	0.12
1699.56	0.12
1699.91	0.24
1700.26	0.28
1700.61	0.36
1700.97	0.84
1701.32	0.52
1701.67	0.44
1702.02	0.4
1702.37	0.56
1702.73	0.4
1703.08	0.64
1703.43	1
1703.78	1.24
1704.13	1.04
1704.49	1.2
1704.84	1.4
1705.19	1
1705.54	0.88
1705.89	0.84
1706.25	0.68
1706.6	0.28
1706.95	0.28
1707.3	0.08
1707.65	0.08
1708.01	0.64
1708.36	0.68
1708.71	0.68
1709.06	0.68
1709.41	0.96
1709.76	0.64
1710.12	0.68
1710.47	0.68
1710.82	0.92
1711.17	0.64
1711.52	0.68
1711.87	0.52
1712.23	0.68
1712.58	0.56
1712.93	1.08
1713.28	1.28
1713.63	1.76
1713.98	1.6
1714.33	1.84
1714.69	1.36
1715.04	1.04
1715.39	1.24
1715.74	1.68
1716.09	1.6
1716.44	2.04
1716.79	2.2
1717.14	1.64
1717.5	1.36
1717.85	1.44
1718.2	1.56
1718.55	1.24
1718.9	1.4
1719.25	1.24
1719.6	0.92
1719.95	0.52
1720.3	0.76
1720.65	0.68
1721.01	0.92
1721.36	1.24
1721.71	1.08
1722.06	0.44
1722.41	1.12
1722.76	1.12
1723.11	0.92
1723.46	1.52
1723.81	2.12
1724.16	1.28
1724.51	1.44
1724.86	1.64
1725.21	1.36
1725.56	1.68
1725.92	1.8
1726.27	1.68
1726.62	1.32
1726.97	1.2
1727.32	0.44
1727.67	1.12
1728.02	0.96
1728.37	1.32
1728.72	1.4
1729.07	1.84
1729.42	1.64
1729.77	1.64
1730.12	1.68
1730.47	1.52
1730.82	1.32
1731.17	0.8
1731.52	1.08
1731.87	0.88
1732.22	0.8
1732.57	1.48
1732.92	1.48
1733.27	1.12
1733.62	1
1733.97	1.28
1734.32	0.6
1734.67	0.92
1735.02	0.48
1735.37	1.12
1735.72	0.76
1736.07	1.12
1736.42	0.84
1736.77	1.64
1737.12	1.08
1737.47	1.24
1737.82	0.96
1738.17	0.8
1738.52	0.68
1738.87	0.92
1739.22	1.04
1739.57	0.96
1739.92	1
1740.27	0.88
1740.62	0.48
1740.97	0.36
1741.32	0.56
1741.67	0.64
1742.02	0.64
1742.37	0.72
1742.72	1.2
1743.06	1
1743.41	0.88
1743.76	0.72
1744.11	-0.56
1744.46	-1.12
1744.81	-1.04
1745.16	-1.04
1745.51	-0.88
1745.86	0.44
1746.21	0.4
1746.56	0.44
1746.91	0.84
1747.26	0.68
1747.6	0.6
1747.95	0.56
1748.3	0.68
1748.65	0.36
1749	0.36
1749.35	0.72
1749.7	0.88
1750.05	0.8
1750.4	0.72
1750.75	0.72
1751.09	0.32
1751.44	0.52
1751.79	0.04
1752.14	0.08
1752.49	0.08
1752.84	0.16
1753.19	-0.2
1753.54	0.12
1753.88	0.08
1754.23	0.28
1754.58	0.2
1754.93	0.88
1755.28	0.88
1755.63	0.88
1755.98	0.96
1756.32	0.96
1756.67	0.32
1757.02	0.36
1757.37	0.76
1757.72	1.32
1758.07	1.4
1758.42	1.6
1758.76	2.52
1759.11	1.76
1759.46	0.92
1759.81	1.04
1760.16	0.8
1760.5	-0.16
1760.85	0.24
1761.2	0.24
1761.55	1.04
1761.9	1.16
1762.25	1.44
1762.59	2.72
1762.94	3.56
1763.29	3.48
1763.64	3.84
1763.99	4.16
1764.33	4
1764.68	3.4
1765.03	2.88
1765.38	3.88
1765.73	3.84
1766.07	3.32
1766.42	4.68
1766.77	4.84
1767.12	4.68
1767.46	4.76
1767.81	6.24
1768.16	7.16
1768.51	7.2
1768.85	6.8
1769.2	8.12
1769.55	8.04
1769.9	8.2
1770.25	9.4
1770.59	11.4
1770.94	11.92
1771.29	11.72
1771.64	12.28
1771.98	12.8
1772.33	12.92
1772.68	14.12
1773.02	16.52
1773.37	19.2
1773.72	19.84
1774.07	21.4
1774.41	24.4
1774.76	23.32
1775.11	22.44
1775.46	23.92
1775.8	22.08
1776.15	22.4
1776.5	23.88
1776.84	23.84
1777.19	28.84
1777.54	34.64
1777.89	36.6
1778.23	40.6
1778.58	45.12
1778.93	44.68
1779.27	44.2
1779.62	43.72
1779.97	42.24
1780.31	41.4
1780.66	41.04
1781.01	41
1781.35	44.24
1781.7	47.8
1782.05	49.16
1782.39	49.28
1782.74	50.2
1783.09	50
1783.43	50.84
1783.78	52.04
1784.13	57.2
1784.47	56.72
1784.82	54.04
1785.17	54.44
1785.51	53.24
1785.86	53.36
1786.21	61.64
1786.55	68.68
1786.9	74.16
1787.25	79.76
1787.59	79.64
1787.94	78.28
1788.29	76.48
1788.63	73.12
1788.98	74.44
1789.32	74.76
1789.67	70.2
1790.02	68.72
1790.36	72.28
1790.71	80.4
1791.06	88.92
1791.4	99
1791.75	113.16
1792.09	124.28
1792.44	127.28
1792.79	129.32
1793.13	137
1793.48	134.6
1793.82	131.28
1794.17	124.12
1794.52	117.16
1794.86	112.92
1795.21	105.36
1795.55	86.48
1795.9	80.52
1796.24	96.96
1796.59	112
1796.94	130.8
1797.28	150.4
1797.63	164.2
1797.97	154.2
1798.32	135.28
1798.66	138.12
1799.01	141.4
1799.36	134.28
1799.7	137.04
1800.05	143
1800.39	126.16
1800.74	135.76
1801.08	161.2
1801.43	175.52
1801.77	177.8
1802.12	185.4
1802.46	186.08
1802.81	171.48
1803.15	157.84
1803.5	153.72
1803.85	141.4
1804.19	120.68
1804.54	117.08
1804.88	115.76
1805.23	114.76
1805.57	137.16
1805.92	169.16
1806.26	178.8
1806.61	179.16
1806.95	192.4
1807.3	205.24
1807.64	204.84
1807.99	208.16
1808.33	211.08
1808.68	198.8
1809.02	195.36
1809.37	207.88
1809.71	215.4
1810.06	224.76
1810.4	227.92
1810.75	210.44
1811.09	200.44
1811.43	218.84
1811.78	247.68
1812.12	284.04
1812.47	301.6
1812.81	299.92
1813.16	280.32
1813.5	257.64
1813.85	237.72
1814.19	228.96
1814.54	210.92
1814.88	197.64
1815.23	179.72
1815.57	150.12
1815.91	122.64
1816.26	123.88
1816.6	150.08
1816.95	172.72
1817.29	197.68
1817.64	236.32
1817.98	272.56
1818.32	278.12
1818.67	282.28
1819.01	298.48
1819.36	293.64
1819.7	262.36
1820.05	246.52
1820.39	241.4
1820.73	226.72
1821.08	227.8
1821.42	224.28
1821.77	200
1822.11	177.64
1822.45	168.76
1822.8	152.36
1823.14	138.24
1823.49	163
1823.83	206.76
1824.17	238.24
1824.52	257.08
1824.86	277.68
1825.2	269.44
1825.55	230.92
1825.89	189.48
1826.24	190.32
1826.58	213.6
1826.92	217.6
1827.27	232.56
1827.61	254.48
1827.95	238.48
1828.3	208.44
1828.64	187.4
1828.98	154.92
1829.33	153.16
1829.67	185.32
1830.02	194.2
1830.36	219.4
1830.7	262.24
1831.05	265.08
1831.39	243.32
1831.73	237.52
1832.08	218.48
1832.42	198.84
1832.76	186.8
1833.1	169.64
1833.45	158.64
1833.79	153.36
1834.13	145.64
1834.48	145.32
1834.82	148.64
1835.16	145.76
1835.51	149.04
1835.85	142.28
1836.19	125.8
1836.54	112.28
1836.88	101.92
1837.22	80.48
1837.56	77.28
1837.91	90
1838.25	105.04
1838.59	125.64
1838.94	141.12
1839.28	136.24
1839.62	130.92
1839.96	122.56
1840.31	97
1840.65	81.84
1840.99	101.04
1841.34	125.64
1841.68	138.72
1842.02	162.08
1842.36	175.4
1842.71	152.36
1843.05	124.12
1843.39	126.48
1843.73	132
1844.08	153.24
1844.42	182.12
1844.76	190.32
1845.1	173.2
1845.45	156.24
1845.79	141.16
1846.13	126.64
1846.47	116.96
1846.81	109.72
1847.16	114.44
1847.5	118
1847.84	124.24
1848.18	133.4
1848.53	140.56
1848.87	134.96
1849.21	122.2
1849.55	107.96
1849.89	98.8
1850.24	91.24
1850.58	85.08
1850.92	82.2
1851.26	78.12
1851.6	73.88
1851.95	72.04
1852.29	67.8
1852.63	60.92
1852.97	54.96
1853.31	46.28
1853.66	43.48
1854	50.72
1854.34	53.76
1854.68	63.52
1855.02	69.84
1855.36	69.56
1855.71	60.84
1856.05	53.28
1856.39	42.4
1856.73	36.64
1857.07	32.92
1857.41	30.92
1857.76	30.28
1858.1	27.56
1858.44	26.44
1858.78	24.76
1859.12	20.2
1859.46	17.72
1859.8	15.28
1860.15	13.64
1860.49	27.04
1860.83	36.04
1861.17	38.32
1861.51	41.36
1861.85	41.08
1862.19	24.76
1862.53	20.6
1862.88	21.8
1863.22	19
1863.56	17.24
1863.9	17
1864.24	12.6
1864.58	10
1864.92	9.88
1865.26	9.2
1865.6	8.24
1865.94	5.92
1866.29	3.68
1866.63	2.84
1866.97	2.8
1867.31	4.52
1867.65	7.04
1867.99	8
1868.33	8.16
1868.67	9.52
1869.01	10.04
1869.35	16.6
1869.69	25.56
1870.03	30.72
1870.37	34.68
1870.72	34.56
1871.06	25.84
1871.4	16.52
1871.74	11.84
1872.08	9.28
1872.42	15.48
1872.76	23.76
1873.1	23.96
1873.44	24.28
1873.78	21.32
1874.12	14.64
1874.46	11.88
1874.8	18.4
1875.14	23.08
1875.48	24.68
1875.82	27.04
1876.16	27.2
1876.5	24.04
1876.84	19
1877.18	17.6
1877.52	13.2
1877.86	8.68
1878.2	5.56
1878.54	6.92
1878.88	8.28
1879.22	9.92
1879.56	11.12
1879.9	12.84
1880.24	12.8
1880.58	14.52
1880.92	17.52
1881.26	17.6
1881.6	18
1881.94	18.64
1882.28	21.48
1882.62	25.44
1882.96	30.52
1883.3	31
1883.64	30.16
1883.98	26.44
1884.32	21
1884.66	16.8
1885	17.6
1885.34	20.2
1885.68	22
1886.02	25.08
1886.36	24.4
1886.7	23.24
1887.04	23.72
1887.38	23.84
1887.72	23.92
1888.06	27.76
1888.39	31.68
1888.73	36.04
1889.07	45.44
1889.41	46.92
1889.75	48.64
1890.09	53.2
1890.43	51.76
1890.77	40.4
1891.11	35.96
1891.45	32.24
1891.79	24.88
1892.13	22.64
1892.47	27.36
1892.8	31.84
1893.14	34.8
1893.48	41.28
1893.82	44.4
1894.16	42.96
1894.5	43.16
1894.84	45.2
1895.18	41.4
1895.52	42.28
1895.86	45.96
1896.19	47.6
1896.53	48
1896.87	52.56
1897.21	51.6
1897.55	53.36
1897.89	57.44
1898.23	58.96
1898.57	55.68
1898.9	57.2
1899.24	56.8
1899.58	52.24
1899.92	52.4
1900.26	55.16
1900.6	56.16
1900.94	56.52
1901.27	60.2
1901.61	59.16
1901.95	58.84
1902.29	60.72
1902.63	61.68
1902.97	62.92
1903.3	66.12
1903.64	68.04
1903.98	67.64
1904.32	69.4
1904.66	68.52
1905	68.24
1905.33	69.88
1905.67	71.48
1906.01	71.56
1906.35	73.36
1906.69	72.96
1907.02	71.72
1907.36	71.64
1907.7	72.44
1908.04	70.84
1908.38	73.32
1908.71	73.48
1909.05	75.56
1909.39	75.4
1909.73	76.88
1910.07	75.52
1910.4	76.44
1910.74	74.84
1911.08	75.72
1911.42	76.24
1911.76	77.04
1912.09	77.08
1912.43	78.56
1912.77	79.12
1913.11	79.52
1913.44	80.32
1913.78	83.08
1914.12	82.24
1914.46	81.76
1914.79	81.72
1915.13	80.64
1915.47	77.88
1915.81	78.72
1916.14	78.36
1916.48	79.16
1916.82	80.24
1917.16	82.44
1917.49	83.48
1917.83	83.68
1918.17	84.08
1918.5	84.64
1918.84	83.08
1919.18	83.32
1919.52	85.08
1919.85	85.2
1920.19	84.72
1920.53	85.8
1920.87	85.04
1921.2	83.52
1921.54	85.32
1921.88	84.68
1922.21	85.68
1922.55	85.12
1922.89	85.76
1923.22	82.4
1923.56	84.44
1923.9	83.28
1924.23	84.8
1924.57	83.96
1924.91	86.72
1925.25	85.92
1925.58	87.28
1925.92	87.28
1926.26	88.24
1926.59	85.72
1926.93	86.52
1927.27	85.32
1927.6	85.92
1927.94	85.8
1928.28	87.6
1928.61	86
1928.95	85.08
1929.29	83.24
1929.62	83.76
1929.96	83.08
1930.29	85.92
1930.63	88.04
1930.97	88.2
1931.3	89.56
1931.64	92.04
1931.98	89.68
1932.31	87.24
1932.65	88.12
1932.99	85.2
1933.32	83.24
1933.66	85.24
1933.99	86.84
1934.33	87.16
1934.67	90.36
1935	89.28
1935.34	87.88
1935.67	90.16
1936.01	89.92
1936.35	88.48
1936.68	89.2
1937.02	89.6
1937.35	87.68
1937.69	87.92
1938.03	88.92
1938.36	86.08
1938.7	86
1939.03	86.6
1939.37	86.2
1939.7	85.84
1940.04	90.48
1940.38	89.96
1940.71	89.04
1941.05	88.96
1941.38	88.84
1941.72	88.2
1942.05	89.48
1942.39	90.24
1942.73	90.68
1943.06	91.6
1943.4	90.8
1943.73	90.92
1944.07	90.96
1944.4	92.24
1944.74	91.16
1945.07	90.96
1945.41	91.12
1945.74	90.48
1946.08	90.88
1946.42	91.52
1946.75	91.96
1947.09	91.4
1947.42	93.92
1947.76	91.8
1948.09	92.08
1948.43	92.8
1948.76	94.12
1949.1	92.92
1949.43	94.56
1949.77	93.88
1950.1	92.36
1950.44	89.56
1950.77	90.64
1951.11	90.12
1951.44	88.36
1951.78	90.84
1952.11	92.88
1952.45	90.24
1952.78	90.16
1953.12	94.12
1953.45	92.2
1953.79	91
1954.12	92.48
1954.46	91.48
1954.79	88.8
1955.12	89.44
1955.46	90.6
1955.79	90.08
1956.13	88.72
1956.46	89.36
1956.8	89.28
1957.13	87.28
1957.47	87.32
1957.8	89.68
1958.14	89.88
1958.47	87.2
1958.8	88
1959.14	88.24
1959.47	86.72
1959.81	86.72
1960.14	89.56
1960.48	87.6
1960.81	86.32
1961.14	86.16
1961.48	84.8
1961.81	82.68
1962.15	83.8
1962.48	82.64
1962.82	82.04
1963.15	80.76
1963.48	82.36
1963.82	82.6
1964.15	82.48
1964.49	83.12
1964.82	85.24
1965.15	83.12
1965.49	81.64
1965.82	81.32
1966.16	80.44
1966.49	77.24
1966.82	76.08
1967.16	77.12
1967.49	78.04
1967.83	75.92
1968.16	76.28
1968.49	76.76
1968.83	75.16
1969.16	74.32
1969.49	74.04
1969.83	72.44
1970.16	71.2
1970.49	70.4
1970.83	69.04
1971.16	68.8
1971.5	68.2
1971.83	67.72
1972.16	66.8
1972.5	64.56
1972.83	63.36
1973.16	63.28
1973.5	60.76
1973.83	59.28
1974.16	60.52
1974.5	60.24
1974.83	59.24
1975.16	59.52
1975.5	58.52
1975.83	57.24
1976.16	56.2
1976.49	53.84
1976.83	52.4
1977.16	51.92
1977.49	50.64
1977.83	48.8
1978.16	48.44
1978.49	47.92
1978.83	46.24
1979.16	44.56
1979.49	44.28
1979.83	44.36
1980.16	42.84
1980.49	42.36
1980.82	42.72
1981.16	42.52
1981.49	41.32
1981.82	40.72
1982.15	40.72
1982.49	39.76
1982.82	37.76
1983.15	37.12
1983.49	36.28
1983.82	34.2
1984.15	32.88
1984.48	32.08
1984.82	30.04
1985.15	29.72
1985.48	29.44
1985.81	27.28
1986.15	26.32
1986.48	25.88
1986.81	24.4
1987.14	23.88
1987.48	22.84
1987.81	22.28
1988.14	21.84
1988.47	21.72
1988.81	20.92
1989.14	21.24
1989.47	20.44
1989.8	19.92
1990.13	18.96
1990.47	17.32
1990.8	15.88
1991.13	15.56
1991.46	14.68
1991.79	13.68
1992.13	12.44
1992.46	13.12
1992.79	11.36
1993.12	10.76
1993.45	9.76
1993.79	10.8
1994.12	8.88
1994.45	9.24
1994.78	8.52
1995.11	9.56
1995.45	8.6
1995.78	9.76
1996.11	9.56
1996.44	9.72
1996.77	8.8
1997.1	8.32
1997.44	6.44
1997.77	6.24
1998.1	5.4
1998.43	5.04
1998.76	4.4
1999.09	4.8
1999.43	3.4
1999.76	3.48
2000.09	3.08
2000.42	3.76
2000.75	2.6
2001.08	4.44
2001.41	4.84
2001.75	5.52
2002.08	5.44
2002.41	7.24
2002.74	5.8
2003.07	5.04
2003.4	4.4
2003.73	4.4
2004.06	3.52
2004.4	3.8
2004.73	4.16
2005.06	3.6
2005.39	2.84
2005.72	2.6
2006.05	2.8
2006.38	2.28
2006.71	2.88
2007.04	3.36
2007.37	4.48
2007.71	4.44
2008.04	5.48
2008.37	5.64
2008.7	5.52
2009.03	5
2009.36	5.2
2009.69	4.96
2010.02	4.16
2010.35	3.96
2010.68	4.52
2011.01	4.84
2011.34	4.52
2011.67	6.4
2012.01	6.8
2012.34	5.56
2012.67	4.68
2013	4.72
2013.33	3.2
2013.66	3.56
2013.99	4.52
2014.32	4.48
2014.65	4.56
2014.98	5.4
2015.31	5.56
2015.64	5.04
2015.97	5.56
2016.3	6.12
2016.63	5.52
2016.96	5.92
2017.29	7.16
2017.62	7.48
2017.95	7.84
2018.28	8.32
2018.61	8.08
2018.94	8.08
2019.27	7.68
2019.6	7.92
2019.93	8.68
2020.26	8.56
2020.59	7.64
2020.92	8.12
2021.25	7.84
2021.58	7.8
2021.91	7.32
2022.24	7.72
2022.57	7.6
2022.9	6.64
2023.23	6.2
2023.56	7.2
2023.89	7.96
2024.22	9.16
2024.55	10.84
2024.88	11.88
2025.21	12.64
2025.54	11.76
2025.87	11
2026.2	9.6
2026.53	8.04
2026.86	7.04
2027.19	7.64
2027.52	8.08
2027.85	9.16
2028.18	10.28
2028.51	10.56
2028.84	9.64
2029.16	9.6
2029.49	9.24
2029.82	8.36
2030.15	7.68
2030.48	7.28
2030.81	7.08
2031.14	6.64
2031.47	6.96
2031.8	8.24
2032.13	9.92
2032.46	10.4
2032.79	10.48
2033.12	10.88
2033.44	9.84
2033.77	8.44
2034.1	7.2
2034.43	6.92
2034.76	7.08
2035.09	7
2035.42	7.88
2035.75	7.8
2036.08	7.88
2036.41	7.48
2036.73	7.68
2037.06	6.68
2037.39	7.08
2037.72	6.92
2038.05	6.56
2038.38	5.88
2038.71	6.16
2039.04	4.48
2039.36	4.04
2039.69	4
2040.02	4.28
2040.35	3.68
2040.68	5.36
2041.01	5.24
2041.34	5.44
2041.66	5
2041.99	5.12
2042.32	4.6
2042.65	5.16
2042.98	4.28
2043.31	4.6
2043.63	4.72
2043.96	4.4
2044.29	4.96
2044.62	4.88
2044.95	4.36
2045.28	4.72
2045.6	5.16
2045.93	3.76
2046.26	4.28
2046.59	4.28
2046.92	4.24
2047.24	3.8
2047.57	3.68
2047.9	3.24
2048.23	3.12
2048.56	3.16
2048.88	3.88
2049.21	3.56
2049.54	2.96
2049.87	3.72
2050.2	3.56
2050.52	2.52
2050.85	2.6
2051.18	3
2051.51	2.44
2051.83	2.12
2052.16	2.16
2052.49	2.48
2052.82	2.52
2053.15	2.12
2053.47	1.8
2053.8	1.96
2054.13	1.92
2054.46	2.68
2054.78	3.12
2055.11	3.12
2055.44	2.8
2055.77	2.76
2056.09	2.12
2056.42	1.72
2056.75	1.76
2057.08	1.8
2057.4	2.56
2057.73	2.36
2058.06	2.16
2058.38	2.48
2058.71	3.48
2059.04	2.68
2059.37	3.08
2059.69	2.92
2060.02	3.24
2060.35	2.08
2060.67	2.76
2061	2.92
2061.33	3.2
2061.66	2.4
2061.98	2.4
2062.31	1.64
2062.64	1.72
2062.96	2.72
2063.29	2.88
2063.62	2.96
2063.94	2.72
2064.27	2.36
2064.6	0.56
2064.92	0.52
2065.25	0.44
2065.58	0.84
2065.91	0.8
2066.23	1.28
2066.56	1
2066.89	1.4
2067.21	1.2
2067.54	0.6
2067.87	0.76
2068.19	0.8
2068.52	0.76
2068.84	0.68
2069.17	0.84
2069.5	0.68
2069.82	0.64
2070.15	0.64
2070.48	0.52
2070.8	0.64
2071.13	0.72
2071.46	0.92
2071.78	0.64
2072.11	0.64
2072.43	0.68
2072.76	0.76
2073.09	0.8
2073.41	1.16
2073.74	1.56
2074.07	1.6
2074.39	1.6
2074.72	1.44
2075.04	1.04
2075.37	0.84
2075.7	0.76
2076.02	0.6
2076.35	0.56
2076.67	0.6
2077	0.44
2077.33	0.44
2077.65	0.44
2077.98	1.08
2078.3	1.6
2078.63	1.6
2078.95	1.6
2079.28	1.76
2079.61	0.72
2079.93	0.28
2080.26	0.76
2080.58	0.52
2080.91	0.44
2081.23	0.8
2081.56	0.64
2081.89	0.4
2082.21	0.36
2082.54	0.28
2082.86	0.32
2083.19	0.6
2083.51	0.52
2083.84	0.64
2084.16	0.88
2084.49	1.12
2084.81	0.84
2085.14	0.8
2085.46	0.88
2085.79	0.88
2086.12	0.72
2086.44	0.92
2086.77	0.76
2087.09	0.6
2087.42	0.36
2087.74	0.24
2088.07	0.04
2088.39	0.44
2088.72	0.4
2089.04	0.4
2089.37	0.64
2089.69	0.64
2090.02	0.24
2090.34	0.04
2090.67	0.12
2090.99	-2.32
2091.32	-2.24
2091.64	-2.24
2091.97	-2.04
2092.29	-2.08
2092.62	0.12
2092.94	0.04
2093.26	0.28
2093.59	0.4
2093.91	-0.84
2094.24	-0.72
2094.56	-0.6
2094.89	-0.72
2095.21	-0.84
2095.54	0.36
2095.86	0.6
2096.19	0.84
2096.51	1
2096.84	1.36
2097.16	1.48
2097.48	1.12
2097.81	0.76
2098.13	0.8
2098.46	0.04
2098.78	-0.08
2099.11	0.64
2099.43	0.8
2099.75	0.48
2100.08	0.92
2100.4	1.52
2100.73	0.92
2101.05	1.08
2101.38	1.24
2101.7	1.24
2102.02	0.72
2102.35	0.84
2102.67	0.76
2103	0.68
2103.32	0.92
2103.64	0.84
2103.97	0.8
2104.29	0.6
2104.62	0.64
2104.94	0.36
2105.26	-0.12
2105.59	-0.12
2105.91	-0.16
2106.23	-0.12
2106.56	-0.08
2106.88	0.8
2107.21	0.6
2107.53	1.04
2107.85	0.92
2108.18	0.88
2108.5	0.48
2108.82	0.52
2109.15	0.2
2109.47	0.16
2109.79	0.36
2110.12	0.6
2110.44	0.64
2110.76	0.56
2111.09	0.64
2111.41	0.56
2111.73	0.52
2112.06	0.44
2112.38	0.48
2112.7	0.04
2113.03	-0.08
2113.35	-0.12
2113.67	-7.21672e-18
2114	-0.04
2114.32	0.32
2114.64	0.64
2114.97	0.64
2115.29	0.76
2115.61	0.8
2115.94	0.8
2116.26	0.48
2116.58	0.32
2116.91	-0.92
2117.23	-0.72
2117.55	-0.64
2117.87	-0.44
2118.2	-0.4
2118.52	0.6
2118.84	0.36
2119.17	0.36
2119.49	0.16
2119.81	0.12
2120.13	0.12
2120.46	0.08
2120.78	-0.92
2121.1	-0.84
2121.42	-0.84
2121.75	-0.84
2122.07	-0.64
2122.39	0.28
2122.72	0.24
2123.04	0.24
2123.36	0.24
2123.68	0.04
2124.01	0.04
2124.33	0.12
2124.65	0.12
2124.97	0.12
2125.29	0.2
2125.62	0.28
2125.94	0.28
2126.26	0.28
2126.58	0.28
2126.91	-0.8
2127.23	-0.88
2127.55	-0.96
2127.87	-0.96
2128.2	-0.64
2128.52	0.4
2128.84	0.4
2129.16	0.36
2129.48	0.6
2129.81	0.28
2130.13	0.24
2130.45	0.52
2130.77	0.56
2131.09	0.32
2131.42	0.32
2131.74	0.44
2132.06	0.24
2132.38	0.2
2132.7	0.32
2133.02	0.36
2133.35	0.52
2133.67	0.44
2133.99	0.6
2134.31	0.08
2134.63	0.04
2134.96	0.08
2135.28	0.08
2135.6	0.04
2135.92	0.44
2136.24	0.44
2136.56	0.24
2136.88	0.24
2137.21	0.12
2137.53	0.12
2137.85	0.12
2138.17	-0.6
2138.49	-0.52
2138.81	-0.52
2139.13	-0.36
2139.46	-0.36
2139.78	0.24
2140.1	0.2
2140.42	0.24
2140.74	0.08
2141.06	0.08
2141.38	0.08
2141.7	0.08
2142.03	0.16
2142.35	0.52
2142.67	0.52
2142.99	0.52
2143.31	0.48
2143.63	0.52
2143.95	0.36
2144.27	0.36
2144.59	0.36
2144.91	0.16
2145.24	0.12
2145.56	-0.08
2145.88	-0.08
2146.2	-0.08
2146.52	0.16
2146.84	0.04
2147.16	0.04
2147.48	0.04
2147.8	0.04
2148.12	0.04
2148.44	0.04
2148.76	0.04
2149.08	0.04
2149.41	0.28
2149.73	0.24
2150.05	0.24
2150.37	0.28
2150.69	0.28
2151.01	0.04
2151.33	0.04
2151.65	0.04
2151.97	0
2152.29	0
2152.61	-0.28
2152.93	-0.28
2153.25	-0.28
2153.57	2.66443e-17
2153.89	2.66443e-17
2154.21	-0.12
2154.53	-0.12
2154.85	-0.12
2155.17	-0.4
2155.49	-0.56
2155.81	0.08
2156.13	0.08
2156.45	0.08
2156.77	0.08
2157.09	0.4
2157.41	0.16
2157.73	0.16
2158.05	0.16
2158.37	0.32
2158.69	0.16
2159.01	0.16
2159.33	0.16
2159.65	0.16
2159.97	0.24
2160.29	0.36
2160.61	0.36
2160.93	0.36
2161.25	0.36
2161.57	0.12
2161.89	0
2162.21	0
2162.53	0.04
2162.85	-0.56
2163.17	-0.56
2163.49	-0.56
2163.81	-0.56
2164.13	-0.44
2164.45	-0.44
2164.77	-0.44
2165.08	-0.44
2165.4	-0.44
2165.72	-0.6
2166.04	0
2166.36	0
2166.68	0
2167	0
2167.32	0
2167.64	0.16
2167.96	0.16
2168.28	0.16
2168.6	0.2
2168.92	0.2
2169.24	0.04
2169.55	0.04
2169.87	0.08
2170.19	0.36
2170.51	0.36
2170.83	0.36
2171.15	0.36
2171.47	0.32
2171.79	0
2172.11	0
2172.43	0
2172.74	0
2173.06	0
2173.38	0.16
2173.7	0.16
2174.02	0.28
2174.34	0.36
2174.66	0.36
2174.98	0.2
2175.29	0.28
2175.61	0.16
2175.93	0.08
2176.25	0.08
2176.57	0.08
2176.89	0
2177.21	0
2177.52	0.16
2177.84	0.16
2178.16	0.16
2178.48	0.52
2178.8	0.52
2179.12	0.48
2179.43	0.48
2179.75	-0.52
2180.07	-0.76
2180.39	-0.76
2180.71	-0.88
2181.03	-0.88
2181.34	0.12
2181.66	0
2181.98	0.08
2182.3	0.08
2182.62	0.08
2182.93	-0.32
2183.25	-0.24
2183.57	-0.32
2183.89	-0.32
2184.21	-0.32
2184.52	0.28
2184.84	0.28
2185.16	0.28
2185.48	0.36
2185.8	0.36
2186.11	0.16
2186.43	0.08
2186.75	0.08
2187.07	-0.24
2187.39	-1.04
2187.7	-1.04
2188.02	-1.56
2188.34	-1.56
2188.66	-1.24
2188.97	-0.44
2189.29	-0.36
2189.61	0.16
2189.93	0.16
2190.24	0.08
2190.56	0.32
2190.88	0.24
2191.2	0.24
2191.51	0.24
2191.83	0.28
2192.15	0.04
2192.47	0.04
2192.78	0.04
2193.1	0.04
2193.42	0
2193.74	0
2194.05	0.16
2194.37	0.16
2194.69	0.16
2195	-0.24
2195.32	-0.24
2195.64	-0.4
2195.96	-0.4
2196.27	-0.4
2196.59	-0.6
2196.91	-0.6
2197.22	-0.6
2197.54	-0.6
2197.86	-0.6
2198.18	0.16
2198.49	0.16
2198.81	0.16
2199.13	0.16
2199.44	0.24
2199.76	0.12
2200.08	0.16
2200.39	0.16
2200.71	0.16
2201.03	0.08
2201.34	0.08
2201.66	0.04
2201.98	0.16
2202.29	0.16
2202.61	0.16
2202.93	0.12
2203.24	0.12
2203.56	0
2203.88	0
2204.19	0
2204.51	0.12
2204.83	0.12
2205.14	0.12
2205.46	0.12
2205.78	0.12
2206.09	0
2206.41	-0.2
2206.72	-0.4
2207.04	-0.4
2207.36	-0.8
2207.67	-0.76
2207.99	-0.56
2208.31	-0.36
2208.62	-0.36
2208.94	0.04
2209.25	0
2209.57	0.08
2209.89	0.08
2210.2	0.16
2210.52	0.16
2210.83	0.16
2211.15	0.08
2211.47	0.08
2211.78	0
2212.1	-0.4
2212.41	-0.4
2212.73	-0.32
2213.05	-0.32
2213.36	-0.28
2213.68	0.12
2213.99	0.12
2214.31	0.04
2214.62	0.04
2214.94	0
2215.26	0
2215.57	0
2215.89	0
2216.2	0
2216.52	0
2216.83	0
2217.15	0
2217.46	0
2217.78	0
2218.1	-0.08
2218.41	-0.08
2218.73	-0.08
2219.04	-0.08
2219.36	-0.08
2219.67	0
2219.99	0.04
2220.3	0.04
2220.62	0.04
2220.93	0.04
2221.25	0.24
2221.56	0.2
2221.88	0.2
2222.19	0.2
2222.51	0.2
2222.82	-1.4
2223.14	-1.4
2223.45	-1.4
2223.77	-1.4
2224.08	-1.4
2224.4	0.08
2224.71	0.4
2225.03	0.4
2225.34	0.4
2225.66	-1
2225.97	-1.08
2226.29	-1.4
2226.6	-1.4
2226.92	-1.4
2227.23	0.24
2227.55	0.24
2227.86	0.24
2228.18	0.24
2228.49	0.24
2228.81	0
2229.12	0.08
2229.44	0.08
2229.75	0.08
2230.07	0.08
2230.38	0.08
2230.69	0
2231.01	0
2231.32	0.12
2231.64	0.12
2231.95	0.12
2232.27	0.12
2232.58	0.16
2232.9	0.04
2233.21	0.16
2233.52	0.16
2233.84	0.16
2234.15	0.12
2234.47	0.2
2234.78	0.08
2235.1	0.08
2235.41	0.08
2235.72	0.2
2236.04	0.12
2236.35	0.16
2236.67	-0.44
2236.98	-0.44
2237.29	-0.56
2237.61	-0.56
2237.92	-0.6
2238.24	0
2238.55	0.04
2238.86	0.04
2239.18	0.04
2239.49	-0.76
2239.8	-0.76
2240.12	-0.8
2240.43	-0.76
2240.75	-0.72
2241.06	0.12
2241.37	0.12
2241.69	0.16
2242	0.12
2242.31	0.08
2242.63	0.04
2242.94	0.04
2243.26	-0.56
2243.57	-0.56
2243.88	-0.48
2244.2	-0.48
2244.51	-0.36
2244.82	0.2
2245.14	0.2
2245.45	0.12
2245.76	0.12
2246.08	0
2246.39	0
2246.7	0.04
2247.02	0.04
2247.33	0.04
2247.64	0.04
2247.96	0.32
2248.27	0.4
2248.58	-0.6
2248.9	-0.6
2249.21	-0.6
2249.52	-0.88
2249.83	-1
2250.15	0
2250.46	0.08
2250.77	0.08
2251.09	0.08
2251.4	0.08
2251.71	0.08
2252.03	0
2252.34	0.08
2252.65	0.08
2252.96	0.08
2253.28	0.08
2253.59	0.08
2253.9	0
2254.21	0
2254.53	0.08
2254.84	-0.32
2255.15	-0.24
2255.47	-0.2
2255.78	-0.2
2256.09	-0.28
2256.4	0.12
2256.72	0.04
2257.03	0
2257.34	0.08
2257.65	0.08
2257.97	0.08
2258.28	0.08
2258.59	0.08
2258.9	0
2259.22	0
2259.53	0
2259.84	0
2260.15	0
2260.46	0
2260.78	0.04
2261.09	0.28
2261.4	0.32
2261.71	0.36
2262.03	0.36
2262.34	0.32
2262.65	0.16
2262.96	0.12
2263.27	0.08
2263.59	0.08
2263.9	0.08
2264.21	0
2264.52	0.04
2264.83	0.04
2265.15	0.04
2265.46	0.04
2265.77	0.04
2266.08	0
2266.39	0.12
2266.7	0.12
2267.02	0.12
2267.33	-2.88669e-17
2267.64	-2.88669e-17
2267.95	-0.12
2268.26	-0.12
2268.57	-0.12
2268.89	0
2269.2	0
2269.51	0
2269.82	0
2270.13	0
2270.44	0
2270.76	-0.4
2271.07	-0.4
2271.38	-1
2271.69	-1
2272	-0.92
2272.31	-0.72
2272.62	-1.52
2272.93	-0.92
2273.25	-0.92
2273.56	-1
2273.87	-0.8
2274.18	0.04
2274.49	0.04
2274.8	0.04
2275.11	0.04
2275.42	0.04
2275.74	0
2276.05	0
2276.36	0
2276.67	0
2276.98	0
2277.29	0
2277.6	0.16
2277.91	0.16
2278.22	-0.24
2278.53	-0.16
2278.85	-0.12
2279.16	-1.28
2279.47	-1.28
2279.78	-0.88
2280.09	-0.96
2280.4	-1
2280.71	0
2281.02	0
2281.33	0
2281.64	0
2281.95	0
2282.26	0
2282.57	0
2282.88	0.16
2283.19	0.16
2283.5	0.2
2283.82	0.2
2284.13	0.2
2284.44	0.04
2284.75	-0.56
2285.06	-0.6
2285.37	-0.52
2285.68	-0.52
2285.99	-0.52
2286.3	0.08
2286.61	0.08
2286.92	0
2287.23	0
2287.54	0
2287.85	0
2288.16	0
2288.47	0
2288.78	0
2289.09	0
2289.4	0
2289.71	0.16
2290.02	0.16
2290.33	0.16
2290.64	0.16
2290.95	-0.04
2291.26	-0.2
2291.57	-0.2
2291.88	-0.6
2292.19	-0.6
2292.5	-0.4
2292.81	-0.4
2293.12	-0.4
2293.43	0
2293.74	0
2294.05	0
2294.36	0
2294.67	0
2294.98	0
2295.29	0
2295.6	0
2295.91	0
2296.21	0
2296.52	0
2296.83	0
2297.14	0
2297.45	0
2297.76	0
2298.07	0
2298.38	0
2298.69	0
2299	0
2299.31	0
2299.62	0
2299.93	0
2300.24	0
2300.55	0
2300.85	0
2301.16	0
2301.47	0
2301.78	0
2302.09	0
2302.4	0
2302.71	0
2303.02	0
2303.33	0
2303.64	0
2303.94	0
2304.25	0
2304.56	0
2304.87	0
2305.18	0
2305.49	0
2305.8	0
2306.11	0
2306.42	0
2306.72	0
2307.03	0
2307.34	0
2307.65	0
2307.96	0
2308.27	0
2308.58	0
2308.88	0
2309.19	0
2309.5	0
2309.81	0
2310.12	0
2310.43	0
2310.74	0
2311.04	0
2311.35	0
2311.66	0
2311.97	0
2312.28	0
2312.59	0
2312.89	0
2313.2	0
2313.51	0
2313.82	0
2314.13	0
2314.43	0
2314.74	0
2315.05	0
2315.36	0
2315.67	0
2315.97	0
2316.28	0
2316.59	0
2316.9	0
2317.21	0
2317.51	0
2317.82	0
2318.13	0
2318.44	0
2318.75	0
2319.05	0
2319.36	0
2319.67	0
2319.98	0
2320.28	0
2320.59	0
2320.9	0
2321.21	0
2321.51	0
2321.82	0
2322.13	0
2322.44	0
2322.74	0
2323.05	0
2323.36	0
2323.67	0
2323.97	0
2324.28	0
2324.59	0
2324.9	0
2325.2	0
2325.51	0
2325.82	0
2326.13	0
2326.43	0
2326.74	0
2327.05	0
2327.35	0
2327.66	0
2327.97	0
2328.27	0
2328.58	0
2328.89	0
2329.2	0
2329.5	0
2329.81	0
2330.12	0
2330.42	0
2330.73	0
2331.04	0
2331.34	0
2331.65	0
2331.96	0
2332.26	0
2332.57	0
2332.88	0
2333.18	0
2333.49	0
2333.8	0
2334.1	0
2334.41	0
2334.72	0
2335.02	0
2335.33	0
2335.64	0
2335.94	0
2336.25	0
2336.56	0
2336.86	0
2337.17	0
2337.48	0
2337.78	0
2338.09	0
2338.39	0
2338.7	0
2339.01	0
2339.31	0
2339.62	0
2339.93	0
2340.23	0
2340.54	0
2340.84	0
2341.15	0
2341.46	0
2341.76	0
2342.07	0
2342.37	0
2342.68	0
2342.99	0
2343.29	0
2343.6	0
2343.9	0
2344.21	0
2344.51	0
2344.82	0
2345.13	0
2345.43	0
2345.74	0
2346.04	0
2346.35	0
2346.65	0
2346.96	0
2347.27	0
2347.57	0
2347.88	0
2348.18	0
2348.49	0
2348.79	0
2349.1	0
2349.4	0
2349.71	0
2350.01	0
2350.32	0
2350.63	0
2350.93	0
2351.24	0
2351.54	0
2351.85	0
2352.15	0
2352.46	0
2352.76	0
2353.07	0
2353.37	0
2353.68	0
2353.98	0
2354.29	0
2354.59	0
2354.9	0
2355.2	0
2355.51	0
2355.81	0
2356.12	0
2356.42	0
2356.73	0
2357.03	0
2357.34	0
2357.64	0
2357.95	0
2358.25	0
2358.55	0
2358.86	0
2359.16	0
2359.47	0
2359.77	0
2360.08	0
2360.38	0
2360.69	0
2360.99	0
2361.3	0
2361.6	0
2361.9	0
2362.21	0
2362.51	0
2362.82	0
2363.12	0
2363.43	0
2363.73	0
2364.04	0
2364.34	0
2364.64	0
2364.95	0
2365.25	0
2365.56	0
2365.86	0
2366.16	0
2366.47	0
2366.77	0
2367.08	0
2367.38	0
2367.68	0
2367.99	0
2368.29	0
2368.6	0
2368.9	0
2369.2	0
2369.51	0
2369.81	0
2370.12	0
2370.42	0
2370.72	0
2371.03	0
2371.33	0
2371.63	0
2371.94	0
2372.24	0
2372.55	0
2372.85	0
2373.15	0
2373.46	0
2373.76	0
2374.06	0
2374.37	0
2374.67	0
2374.97	0
2375.28	0
2375.58	0
2375.88	0
2376.19	0
2376.49	0
2376.79	0
2377.1	0
2377.4	0
2377.7	0
2378.01	0
2378.31	0
2378.61	0
2378.92	0
2379.22	0
2379.52	0
2379.82	0
2380.13	0
2380.43	0
2380.73	0
2381.04	0
2381.34	0
2381.64	0
2381.95	0
2382.25	0
2382.55	0
2382.85	0
2383.16	0
2383.46	0
2383.76	0
2384.06	0
2384.37	0
2384.67	0
2384.97	0
2385.28	0
2385.58	0
2385.88	0
2386.18	0
2386.49	0
2386.79	0
2387.09	0
2387.39	0
2387.69	0
2388	0
2388.3	0
2388.6	0
2388.9	0
2389.21	0
2389.51	0
2389.81	0
2390.11	0
2390.42	0
2390.72	0
2391.02	0
2391.32	0
2391.62	0
2391.93	0
2392.23	0
2392.53	0
2392.83	0
2393.13	0
2393.44	0
2393.74	0
2394.04	0
2394.34	0
2394.64	0
2394.95	0
2395.25	0
2395.55	0
2395.85	0
2396.15	0
2396.45	0
2396.76	0
2397.06	0
2397.36	0
2397.66	0
2397.96	0
2398.26	0
2398.57	0
2398.87	0
2399.17	0
2399.47	0
2399.77	0
2400.07	0
2400.37	0
2400.68	0
2400.98	0
2401.28	0
2401.58	0
2401.88	0
2402.18	0
2402.48	0
2402.79	0
2403.09	0
2403.39	0
2403.69	0
2403.99	0
2404.29	0
2404.59	0
2404.89	0
2405.19	0
2405.5	0
2405.8	0
2406.1	0
2406.4	0
2406.7	0
2407	0
2407.3	0
2407.6	0
2407.9	0
2408.2	0
2408.5	0
2408.8	0
2409.11	0
2409.41	0
2409.71	0
2410.01	0
2410.31	0
2410.61	0
2410.91	0
2411.21	0
2411.51	0
2411.81	0
2412.11	0
2412.41	0
2412.71	0
2413.01	0
2413.31	0
2413.61	0
2413.91	0
2414.21	0
2414.51	0
2414.81	0
2415.12	0
2415.42	0
2415.72	0
2416.02	0
2416.32	0
2416.62	0
2416.92	0
2417.22	0
2417.52	0
2417.82	0
2418.12	0
2418.42	0
2418.72	0
2419.02	0
2419.32	0
2419.62	0
2419.92	0
2420.22	0
2420.52	0
2420.82	0
2421.12	0
2421.42	0
2421.71	0
2422.01	0
2422.31	0
2422.61	0
2422.91	0
2423.21	0
2423.51	0
2423.81	0
2424.11	0
2424.41	0
2424.71	0
2425.01	0
2425.31	0
2425.61	0
2425.91	0
2426.21	0
2426.51	0
2426.81	0
2427.11	0
2427.41	0
2427.7	0
2428	0
2428.3	0
2428.6	0
2428.9	0
2429.2	0
2429.5	0
2429.8	0
2430.1	0
2430.4	0
2430.7	0
2430.99	0
2431.29	0
2431.59	0
2431.89	0
2432.19	0
2432.49	0
2432.79	0
2433.09	0
2433.39	0
2433.68	0
2433.98	0
2434.28	0
2434.58	0
2434.88	0
2435.18	0
2435.48	0
2435.78	0
2436.07	0
2436.37	0
2436.67	0
2436.97	0
2437.27	0
2437.57	0
2437.86	0
2438.16	0
2438.46	0
2438.76	0
2439.06	0
2439.36	0
2439.66	0
2439.95	0
2440.25	0
2440.55	0
2440.85	0
2441.15	0
2441.44	0
2441.74	0
2442.04	0
2442.34	0
2442.64	0
2442.93	0
2443.23	0
2443.53	0
2443.83	0
2444.13	0
2444.42	0
2444.72	0
2445.02	0
2445.32	0
2445.62	0
2445.91	0
2446.21	0
2446.51	0
2446.81	0
2447.1	0
2447.4	0
2447.7	0
2448	0
2448.3	0
2448.59	0
2448.89	0
2449.19	0
2449.49	0
2449.78	0
2450.08	0
2450.38	0
2450.68	0
2450.97	0
2451.27	0
2451.57	0
2451.87	0
2452.16	0
2452.46	0
2452.76	0
2453.05	0
2453.35	0
2453.65	0
2453.95	0
2454.24	0
2454.54	0
2454.84	0
2455.13	0
2455.43	0
2455.73	0
2456.03	0
2456.32	0
2456.62	0
2456.92	0
2457.21	0
2457.51	0
2457.81	0
2458.1	0
2458.4	0
2458.7	0
2458.99	0
2459.29	0
2459.59	0
2459.88	0
2460.18	0
2460.48	0
2460.77	0
2461.07	0
2461.37	0
2461.66	0
2461.96	0
2462.26	0
2462.55	0
2462.85	0
2463.15	0
2463.44	0
2463.74	0
2464.04	0
2464.33	0
2464.63	0
2464.92	0
2465.22	0
2465.52	0
2465.81	0
2466.11	0
2466.41	0
2466.7	0
2467	0
2467.29	0
2467.59	0
2467.89	0
2468.18	0
2468.48	0
2468.77	0
2469.07	0
2469.37	0
2469.66	0
2469.96	0
2470.25	0
2470.55	0
2470.84	0
2471.14	0
2471.44	0
2471.73	0
2472.03	0
2472.32	0
2472.62	0
2472.91	0
2473.21	0
2473.51	0
2473.8	0
2474.1	0
2474.39	0
2474.69	0
2474.98	0
2475.28	0
2475.57	0
2475.87	0
2476.17	0
2476.46	0
2476.76	0
2477.05	0
2477.35	0
2477.64	0
2477.94	0
2478.23	0
2478.53	0
2478.82	0
2479.12	0
2479.41	0
2479.71	0
2480	0
2480.3	0
2480.59	0
2480.89	0
2481.18	0
2481.48	0
2481.77	0
2482.07	0
2482.36	0
2482.66	0
2482.95	0
2483.25	0
2483.54	0
2483.84	0
2484.13	0
2484.43	0
2484.72	0
2485.02	0
2485.31	0
2485.6	0
2485.9	0
2486.19	0
2486.49	0
2486.78	0
2487.08	0
2487.37	0
2487.67	0
2487.96	0
2488.26	0
2488.55	0
2488.84	0
2489.14	0
2489.43	0
2489.73	0
2490.02	0
2490.32	0
2490.61	0
2490.9	0
2491.2	0
2491.49	0
2491.79	0
2492.08	0
2492.37	0
2492.67	0
2492.96	0
2493.26	0
2493.55	0
2493.84	0
2494.14	0
2494.43	0
2494.73	0
2495.02	0
2495.31	0
2495.61	0
2495.9	0
2496.2	0
2496.49	0
2496.78	0
2497.08	0
2497.37	0
2497.66	0
2497.96	0
2498.25	0
2498.54	0
2498.84	0
2499.13	0
2499.43	0
2499.72	0
2500.01	0
2500.31	0
2500.6	0
2500.89	0
2501.19	0
2501.48	0
2501.77	0
2502.07	0
2502.36	0
2502.65	0
2502.95	0
2503.24	0
2503.53	0
2503.82	0
2504.12	0
2504.41	0
2504.7	0
2505	0
2505.29	0
2505.58	0
2505.88	0
2506.17	0
2506.46	0
2506.76	0
2507.05	0
2507.34	0
2507.63	0
2507.93	0
2508.22	0
2508.51	0
2508.8	0
2509.1	0
2509.39	0
2509.68	0
2509.98	0
2510.27	0
2510.56	0
2510.85	0
2511.15	0
2511.44	0
2511.73	0
2512.02	0
2512.32	0
2512.61	0
2512.9	0
2513.19	0
2513.49	0
2513.78	0
2514.07	0
2514.36	0
2514.65	0
2514.95	0
2515.24	0
2515.53	0
2515.82	0
2516.12	0
2516.41	0
2516.7	0
2516.99	0
2517.28	0
2517.58	0
2517.87	0
2518.16	0
2518.45	0
2518.74	0
2519.04	0
2519.33	0
2519.62	0
2519.91	0
2520.2	0
2520.5	0
2520.79	0
2521.08	0
2521.37	0
2521.66	0
2521.95	0
2522.25	0
2522.54	0
2522.83	0
2523.12	0
2523.41	0
2523.7	0
2523.99	0
2524.29	0
2524.58	0
2524.87	0
2525.16	0
2525.45	0
2525.74	0
2526.03	0
2526.33	0
2526.62	0
2526.91	0
2527.2	0
2527.49	0
2527.78	0
2528.07	0
2528.36	0
2528.66	0
2528.95	0
2529.24	0
2529.53	0
2529.82	0
2530.11	0
2530.4	0
2530.69	0
2530.98	0
2531.27	0
2531.57	0
2531.86	0
2532.15	0
2532.44	0
2532.73	0
2533.02	0
2533.31	0
2533.6	0
2533.89	0
2534.18	0
2534.47	0
2534.76	0
2535.05	0
2535.35	0
2535.64	0
2535.93	0
2536.22	0
2536.51	0
2536.8	0
2537.09	0
2537.38	0
2537.67	0
2537.96	0
2538.25	0
2538.54	0
2538.83	0
2539.12	0
2539.41	0
2539.7	0
2539.99	0
2540.28	0
2540.57	0
2540.86	0
2541.15	0
2541.44	0
2541.73	0
2542.02	0
2542.31	0
2542.6	0
2542.89	0
2543.18	0
2543.47	0
2543.76	0
2544.05	0
2544.34	0
2544.63	0
2544.92	0
2545.21	0
2545.5	0
2545.79	0
2546.08	0
2546.37	0
2546.66	0
2546.95	0
2547.24	0
2547.53	0
2547.82	0
2548.11	0
2548.4	0
2548.69	0
2548.98	0
2549.27	0
2549.55	0
2549.84	0
2550.13	0
2550.42	0
2550.71	0
2551	0
2551.29	0
2551.58	0
2551.87	0
2552.16	0
2552.45	0
2552.74	0
2553.03	0
2553.31	0
2553.6	0
2553.89	0
2554.18	0
2554.47	0
2554.76	0
2555.05	0
2555.34	0
2555.63	0
2555.92	0
2556.2	0
2556.49	0
2556.78	0
2557.07	0
2557.36	0
2557.65	0
2557.94	0
2558.23	0
2558.51	0
2558.8	0
2559.09	0
2559.38	0
2559.67	0
2559.96	0
2560.25	0
2560.53	0
2560.82	0
2561.11	0
2561.4	0
2561.69	0
2561.98	0
2562.27	0
2562.55	0
2562.84	0
2563.13	0
2563.42	0
2563.71	0
2564	0
2564.28	0
2564.57	0
2564.86	0
2565.15	0
2565.44	0
2565.72	0
2566.01	0
2566.3	0
2566.59	0
2566.88	0
2567.16	0
2567.45	0
2567.74	0
2568.03	0
2568.32	0
2568.6	0
2568.89	0
2569.18	0
2569.47	0
2569.75	0

