Source: Spectrum Viewer

Chart: Pulse Spectrum

Series: 
Wavelength (nm)	S (a.u.)
1179.9	0
1180.29	0
1180.68	0
1181.06	0
1181.45	0
1181.83	0
1182.22	0
1182.6	0
1182.99	0
1183.38	0
1183.76	0
1184.15	0
1184.53	0
1184.92	0
1185.3	0
1185.69	0
1186.07	0
1186.46	0
1186.85	0
1187.23	0
1187.62	0
1188	0
1188.39	0
1188.77	0
1189.16	0
1189.54	0
1189.93	0
1190.31	0
1190.7	0
1191.08	0
1191.47	0
1191.85	0
1192.24	0
1192.62	0
1193.01	0
1193.39	0
1193.78	0
1194.16	0
1194.55	0
1194.93	0
1195.32	0
1195.7	0
1196.09	0
1196.47	0
1196.86	0
1197.24	0
1197.63	0
1198.01	0
1198.4	0
1198.78	0
1199.16	0
1199.55	0
1199.93	0
1200.32	0
1200.7	0
1201.09	0
1201.47	0
1201.86	0
1202.24	0
1202.63	0
1203.01	0
1203.39	0
1203.78	0
1204.16	0
1204.55	0
1204.93	0
1205.32	0
1205.7	0
1206.08	0
1206.47	0
1206.85	0
1207.24	0
1207.62	0
1208	0
1208.39	0
1208.77	0
1209.16	0
1209.54	0
1209.92	0
1210.31	0
1210.69	0
1211.08	0
1211.46	0
1211.84	0
1212.23	0
1212.61	0
1213	0
1213.38	0
1213.76	0
1214.15	0
1214.53	0
1214.91	0
1215.3	0
1215.68	0
1216.06	0
1216.45	0
1216.83	0
1217.22	0
1217.6	0
1217.98	0
1218.37	0
1218.75	0
1219.13	0
1219.52	0
1219.9	0
1220.28	0
1220.67	0
1221.05	0
1221.43	0
1221.82	0
1222.2	0
1222.58	0
1222.97	0
1223.35	0
1223.73	0
1224.11	0
1224.5	0
1224.88	0
1225.26	0
1225.65	0
1226.03	0
1226.41	0
1226.8	0
1227.18	0
1227.56	0
1227.94	0
1228.33	0
1228.71	0
1229.09	0
1229.47	0
1229.86	0
1230.24	0
1230.62	0
1231.01	0
1231.39	0
1231.77	0
1232.15	0
1232.54	0
1232.92	0
1233.3	0
1233.68	0
1234.07	0
1234.45	0
1234.83	0
1235.21	0
1235.6	0
1235.98	0
1236.36	0
1236.74	0
1237.12	0
1237.51	0
1237.89	0
1238.27	0
1238.65	0
1239.04	0
1239.42	0
1239.8	0
1240.18	0
1240.56	0
1240.95	0
1241.33	0
1241.71	0
1242.09	0
1242.47	0
1242.86	0
1243.24	0
1243.62	0
1244	0
1244.38	0
1244.77	0
1245.15	0
1245.53	0
1245.91	0
1246.29	0
1246.67	0
1247.06	0
1247.44	0
1247.82	0
1248.2	0
1248.58	0
1248.96	0
1249.34	0
1249.73	0
1250.11	0
1250.49	0
1250.87	0
1251.25	0
1251.63	0
1252.01	0
1252.4	0
1252.78	0
1253.16	0
1253.54	0
1253.92	0
1254.3	0
1254.68	0
1255.06	0
1255.45	0
1255.83	0
1256.21	0
1256.59	0
1256.97	0
1257.35	0
1257.73	0
1258.11	0
1258.49	0
1258.87	0
1259.26	0
1259.64	0
1260.02	0
1260.4	0
1260.78	0
1261.16	0
1261.54	0
1261.92	0
1262.3	0
1262.68	0
1263.06	0
1263.44	0
1263.82	0
1264.21	0
1264.59	0
1264.97	0
1265.35	0
1265.73	0
1266.11	0
1266.49	0
1266.87	0
1267.25	0
1267.63	0
1268.01	0
1268.39	0
1268.77	0
1269.15	0
1269.53	0
1269.91	0
1270.29	0
1270.67	0
1271.05	0
1271.43	0
1271.81	0
1272.19	0
1272.57	0
1272.95	0
1273.33	0
1273.71	0
1274.09	0
1274.47	0
1274.85	0
1275.23	0
1275.61	0
1275.99	0
1276.37	0
1276.75	0
1277.13	0
1277.51	0
1277.89	0
1278.27	0
1278.65	0
1279.03	0
1279.41	0
1279.79	0
1280.17	0
1280.55	0
1280.93	0
1281.31	0
1281.69	0
1282.07	0
1282.45	0
1282.82	0
1283.2	0
1283.58	0
1283.96	0
1284.34	0
1284.72	0
1285.1	0
1285.48	0
1285.86	0
1286.24	0
1286.62	0
1287	0
1287.38	0
1287.75	0
1288.13	0
1288.51	0
1288.89	0
1289.27	0
1289.65	0
1290.03	0
1290.41	0
1290.79	0
1291.17	0
1291.54	0
1291.92	0
1292.3	0
1292.68	0
1293.06	0
1293.44	0
1293.82	0
1294.2	0
1294.57	0
1294.95	0
1295.33	0
1295.71	0
1296.09	0
1296.47	0
1296.85	0
1297.22	0
1297.6	0
1297.98	0
1298.36	0
1298.74	0
1299.12	0
1299.5	0
1299.87	0
1300.25	0
1300.63	0
1301.01	0
1301.39	0
1301.77	0
1302.14	0
1302.52	0
1302.9	0
1303.28	0
1303.66	0
1304.03	0
1304.41	0
1304.79	0
1305.17	0
1305.55	0
1305.92	0
1306.3	0
1306.68	0
1307.06	0
1307.44	0
1307.81	0
1308.19	0
1308.57	0
1308.95	0
1309.32	0
1309.7	0
1310.08	0
1310.46	0
1310.84	0
1311.21	0
1311.59	0
1311.97	0
1312.35	0
1312.72	0
1313.1	0
1313.48	0
1313.86	0
1314.23	0
1314.61	0
1314.99	0
1315.37	0
1315.74	0
1316.12	0
1316.5	0
1316.87	0
1317.25	0
1317.63	0
1318.01	0
1318.38	0
1318.76	0
1319.14	0
1319.52	0
1319.89	0
1320.27	0
1320.65	0
1321.02	0
1321.4	0
1321.78	0
1322.15	0
1322.53	0
1322.91	0
1323.29	0
1323.66	0
1324.04	0
1324.42	0
1324.79	0
1325.17	0
1325.55	0
1325.92	0
1326.3	0
1326.68	0
1327.05	0
1327.43	0
1327.81	0
1328.18	0
1328.56	0
1328.94	0
1329.31	0
1329.69	0
1330.06	0
1330.44	0
1330.82	0
1331.19	0
1331.57	0
1331.95	0
1332.32	0
1332.7	0
1333.08	0
1333.45	0
1333.83	0
1334.2	0
1334.58	0
1334.96	0
1335.33	0
1335.71	0
1336.08	0
1336.46	0
1336.84	0
1337.21	0
1337.59	0
1337.96	0
1338.34	0
1338.72	0
1339.09	0
1339.47	0
1339.84	0
1340.22	0
1340.6	0
1340.97	0
1341.35	0
1341.72	0
1342.1	0
1342.47	0
1342.85	0
1343.23	0
1343.6	0
1343.98	0
1344.35	0
1344.73	0
1345.1	0
1345.48	0
1345.85	0
1346.23	0
1346.61	0
1346.98	0
1347.36	0
1347.73	0
1348.11	0
1348.48	0
1348.86	0
1349.23	0
1349.61	0
1349.98	0
1350.36	0
1350.73	0
1351.11	0
1351.48	0
1351.86	0
1352.23	0
1352.61	0
1352.98	0
1353.36	0
1353.73	0
1354.11	0
1354.48	0
1354.86	0
1355.23	0
1355.61	0
1355.98	0
1356.36	0
1356.73	0
1357.11	0
1357.48	0
1357.86	0
1358.23	0
1358.61	0
1358.98	0
1359.35	0
1359.73	0
1360.1	0
1360.48	0
1360.85	0
1361.23	0
1361.6	0
1361.98	0
1362.35	0
1362.72	0
1363.1	0
1363.47	0
1363.85	0
1364.22	0
1364.6	0
1364.97	0
1365.34	0
1365.72	0
1366.09	0
1366.47	0
1366.84	0
1367.22	0
1367.59	0
1367.96	0
1368.34	0
1368.71	0
1369.09	0
1369.46	-1
1369.83	-0.8
1370.21	-0.8
1370.58	-0.8
1370.96	-0.76
1371.33	0.24
1371.7	0.04
1372.08	0.04
1372.45	0.04
1372.82	0.04
1373.2	0.04
1373.57	0.04
1373.95	0.2
1374.32	0.28
1374.69	0.24
1375.07	0.24
1375.44	0.24
1375.81	0.08
1376.19	0.04
1376.56	0.04
1376.93	0.04
1377.31	0.04
1377.68	0.04
1378.05	0
1378.43	0
1378.8	0
1379.17	0
1379.55	0
1379.92	0
1380.29	0.12
1380.67	0.12
1381.04	0.12
1381.41	0.12
1381.79	0.12
1382.16	0.04
1382.53	0.2
1382.91	-0.8
1383.28	-0.8
1383.65	-0.76
1384.03	-0.8
1384.4	-0.96
1384.77	0.04
1385.14	0.04
1385.52	0.4
1385.89	0.44
1386.26	0.52
1386.64	0.52
1387.01	0.56
1387.38	0.32
1387.75	0.28
1388.13	0.4
1388.5	0.4
1388.87	0.36
1389.25	0.2
1389.62	0
1389.99	-0.4
1390.36	-0.4
1390.74	-0.4
1391.11	-0.32
1391.48	-0.12
1391.85	0.08
1392.23	0.12
1392.6	0.12
1392.97	0.12
1393.34	0.12
1393.72	0.12
1394.09	0.08
1394.46	0.08
1394.83	0
1395.21	0
1395.58	0
1395.95	0.16
1396.32	0.16
1396.69	0.16
1397.07	0.16
1397.44	0.16
1397.81	0
1398.18	0
1398.55	0
1398.93	0.08
1399.3	0.08
1399.67	0.12
1400.04	0.12
1400.41	0.36
1400.79	0.32
1401.16	0.32
1401.53	0.32
1401.9	0.72
1402.27	0.48
1402.65	0.44
1403.02	0.44
1403.39	0.68
1403.76	-0.12
1404.13	-0.12
1404.51	-0.04
1404.88	-0.04
1405.25	-0.28
1405.62	0.12
1405.99	0.24
1406.36	0.16
1406.74	0.16
1407.11	0.16
1407.48	0.16
1407.85	-0.92
1408.22	-0.92
1408.59	-0.92
1408.96	-0.96
1409.34	-0.96
1409.71	0
1410.08	0
1410.45	0
1410.82	0
1411.19	0.2
1411.56	0.2
1411.93	0.2
1412.31	0.2
1412.68	0.2
1413.05	0
1413.42	0
1413.79	0.32
1414.16	0.12
1414.53	0.12
1414.9	-0.08
1415.27	-0.08
1415.65	-0.4
1416.02	-0.08
1416.39	-0.04
1416.76	0.16
1417.13	0.16
1417.5	0.16
1417.87	0.04
1418.24	0
1418.61	0
1418.98	0
1419.35	0.24
1419.73	0.24
1420.1	0.24
1420.47	0.24
1420.84	0.24
1421.21	0
1421.58	0.24
1421.95	0.24
1422.32	0.24
1422.69	0.24
1423.06	0.24
1423.43	0
1423.8	0.08
1424.17	0.24
1424.54	0.24
1424.91	0.24
1425.28	0.24
1425.65	0.16
1426.02	0
1426.39	0
1426.76	-0.6
1427.14	-0.6
1427.51	-0.6
1427.88	-0.6
1428.25	-0.6
1428.62	0.16
1428.99	0.16
1429.36	0.36
1429.73	0.6
1430.1	0.8
1430.47	0.64
1430.84	0.76
1431.21	0.56
1431.58	0.32
1431.95	0.12
1432.32	-0.08
1432.69	-0.2
1433.06	-0.2
1433.43	-0.2
1433.8	-0.04
1434.17	0.16
1434.54	0.36
1434.91	0.48
1435.28	0.48
1435.64	0.4
1436.01	-0.2
1436.38	-0.2
1436.75	-0.32
1437.12	-0.12
1437.49	-0.2
1437.86	0.4
1438.23	0.24
1438.6	0.28
1438.97	0.28
1439.34	0.28
1439.71	0.28
1440.08	0.24
1440.45	0.2
1440.82	-0.6
1441.19	-0.6
1441.56	-0.48
1441.93	-0.48
1442.3	-0.44
1442.67	-1.44
1443.03	-1.44
1443.4	-1.56
1443.77	-1.56
1444.14	-1.4
1444.51	0.28
1444.88	0.4
1445.25	0.4
1445.62	0.4
1445.99	0.32
1446.36	0.24
1446.73	0.12
1447.09	0.28
1447.46	0.28
1447.83	0.16
1448.2	0.24
1448.57	0.12
1448.94	-0.04
1449.31	0.2
1449.68	0.4
1450.05	0.44
1450.41	0.56
1450.78	0.16
1451.15	-0.08
1451.52	-0.04
1451.89	-0.16
1452.26	-0.16
1452.63	0.24
1453	0.24
1453.36	0
1453.73	0
1454.1	0
1454.47	0
1454.84	0
1455.21	0
1455.57	-0.4
1455.94	-0.4
1456.31	-0.4
1456.68	-0.4
1457.05	-0.2
1457.42	0.2
1457.78	0.2
1458.15	0.24
1458.52	0.24
1458.89	0.08
1459.26	0.12
1459.63	0.12
1459.99	0.08
1460.36	0.36
1460.73	0.32
1461.1	0.32
1461.47	0.32
1461.83	0.32
1462.2	0.04
1462.57	0.04
1462.94	0.04
1463.31	0.12
1463.67	0.16
1464.04	-0.04
1464.41	-0.04
1464.78	-0.48
1465.15	-0.56
1465.51	-0.52
1465.88	-0.32
1466.25	-0.32
1466.62	0.2
1466.98	0.2
1467.35	0.12
1467.72	0.12
1468.09	0.12
1468.46	0.04
1468.82	0.04
1469.19	0.12
1469.56	0.12
1469.93	0.12
1470.29	0.12
1470.66	0.12
1471.03	0.04
1471.4	0.04
1471.76	0.16
1472.13	0.12
1472.5	0.12
1472.86	0.24
1473.23	0.24
1473.6	0.12
1473.97	0.16
1474.33	0.16
1474.7	0.04
1475.07	0.04
1475.44	0.04
1475.8	-0.2
1476.17	-0.04
1476.54	0.16
1476.9	0.16
1477.27	0.28
1477.64	0.48
1478	0.32
1478.37	0.24
1478.74	0.24
1479.11	0.12
1479.47	0.2
1479.84	0.44
1480.21	0.32
1480.57	0.32
1480.94	0.32
1481.31	0.52
1481.67	0.28
1482.04	0.28
1482.41	0.48
1482.77	0.48
1483.14	0.56
1483.51	0.64
1483.87	0.64
1484.24	0.44
1484.61	0.44
1484.97	0.12
1485.34	0.04
1485.71	-0.88
1486.07	-0.84
1486.44	-0.76
1486.81	-0.8
1487.17	-0.72
1487.54	0.2
1487.9	0.24
1488.27	0.16
1488.64	-0.04
1489	-0.12
1489.37	0.36
1489.74	0.28
1490.1	0.28
1490.47	0.48
1490.83	0.64
1491.2	0.16
1491.57	0.16
1491.93	0.24
1492.3	0.36
1492.66	0.24
1493.03	0.36
1493.4	0.36
1493.76	0.36
1494.13	0.24
1494.49	0.2
1494.86	0.08
1495.23	0.08
1495.59	0
1495.96	-1.4
1496.32	-1.36
1496.69	-1.36
1497.06	-1.36
1497.42	-2
1497.79	-0.6
1498.15	-0.64
1498.52	-0.6
1498.88	-0.6
1499.25	0.04
1499.62	-0.36
1499.98	-0.36
1500.35	-0.28
1500.71	-0.2
1501.08	-0.12
1501.44	0.28
1501.81	0.48
1502.17	0.36
1502.54	0.28
1502.9	0.2
1503.27	0.4
1503.64	0.24
1504	0.24
1504.37	0.32
1504.73	0.32
1505.1	0.12
1505.46	0.2
1505.83	0.2
1506.19	0.12
1506.56	0.12
1506.92	0.6
1507.29	0.48
1507.65	0.52
1508.02	0.52
1508.38	0.52
1508.75	0.16
1509.11	0.16
1509.48	0.12
1509.84	0.28
1510.21	0.32
1510.57	0.24
1510.94	0.24
1511.3	0.24
1511.67	0.08
1512.03	0.24
1512.4	0.24
1512.76	0.92
1513.13	-0.08
1513.49	-0.28
1513.85	-0.44
1514.22	-0.48
1514.58	-1.16
1514.95	0.04
1515.31	0.24
1515.68	0.36
1516.04	0.44
1516.41	0.44
1516.77	0.28
1517.14	0.64
1517.5	0.48
1517.86	0.4
1518.23	0.4
1518.59	0.44
1518.96	0.16
1519.32	0.16
1519.69	0.28
1520.05	0.48
1520.41	0.4
1520.78	0.72
1521.14	0.72
1521.51	0.6
1521.87	0.44
1522.24	0.72
1522.6	0.32
1522.96	0.32
1523.33	0.44
1523.69	0.48
1524.06	0.2
1524.42	0.24
1524.78	0.24
1525.15	0.12
1525.51	0.12
1525.88	0.36
1526.24	0.32
1526.6	0.32
1526.97	0.32
1527.33	0.32
1527.69	0.12
1528.06	0.12
1528.42	0.2
1528.79	0.24
1529.15	-0.56
1529.51	-0.6
1529.88	-0.48
1530.24	-0.4
1530.6	-0.44
1530.97	0.28
1531.33	0.28
1531.69	0.16
1532.06	0
1532.42	0.16
1532.78	0.16
1533.15	0.16
1533.51	0.16
1533.87	0.2
1534.24	0.04
1534.6	0.04
1534.96	0.04
1535.33	0.04
1535.69	0.08
1536.05	0.2
1536.42	0.2
1536.78	0.2
1537.14	0.36
1537.51	0.28
1537.87	0.16
1538.23	0.16
1538.6	0.24
1538.96	0.2
1539.32	0.24
1539.68	0.24
1540.05	0.24
1540.41	0.16
1540.77	0.12
1541.14	0.44
1541.5	0.6
1541.86	0.68
1542.23	0.72
1542.59	0.64
1542.95	0.28
1543.31	0.12
1543.68	0.04
1544.04	0.04
1544.4	0.32
1544.76	0.32
1545.13	0.32
1545.49	0.32
1545.85	0.44
1546.21	0.2
1546.58	0.2
1546.94	0.2
1547.3	0.2
1547.66	0.08
1548.03	0.16
1548.39	0.16
1548.75	0.2
1549.11	0.2
1549.48	0.16
1549.84	0.04
1550.2	0.16
1550.56	0.12
1550.93	0.12
1551.29	0.12
1551.65	0.12
1552.01	0.08
1552.37	0.08
1552.74	0.08
1553.1	0.08
1553.46	0.08
1553.82	0.2
1554.18	0.2
1554.55	0.28
1554.91	0.48
1555.27	0.48
1555.63	0.28
1555.99	0.28
1556.36	0.2
1556.72	-1.6
1557.08	-1.6
1557.44	-1.6
1557.8	-1.6
1558.17	-1.6
1558.53	0
1558.89	0
1559.25	0
1559.61	0
1559.97	0.04
1560.34	0.08
1560.7	0.08
1561.06	0.08
1561.42	0.08
1561.78	0.04
1562.14	-0.4
1562.5	-0.4
1562.87	-0.4
1563.23	-0.32
1563.59	-0.72
1563.95	-0.32
1564.31	-0.2
1564.67	-0.08
1565.03	-0.16
1565.4	0.32
1565.76	0.48
1566.12	0.36
1566.48	0.24
1566.84	0.76
1567.2	0.68
1567.56	0.64
1567.92	0.64
1568.29	0.64
1568.65	0.12
1569.01	0.12
1569.37	-0.4
1569.73	-0.4
1570.09	-0.4
1570.45	-0.4
1570.81	-0.4
1571.17	0.08
1571.53	0.08
1571.89	0.16
1572.26	0.16
1572.62	0.24
1572.98	0.16
1573.34	0.24
1573.7	0.2
1574.06	0.32
1574.42	0.24
1574.78	0.04
1575.14	-0.04
1575.5	-0.08
1575.86	-1
1576.22	-0.96
1576.58	-0.76
1576.94	-0.68
1577.3	-0.32
1577.67	0.48
1578.03	0.52
1578.39	0.52
1578.75	0.52
1579.11	0.16
1579.47	0.52
1579.83	0.76
1580.19	0.84
1580.55	0.76
1580.91	0.76
1581.27	0.68
1581.63	0.36
1581.99	0.28
1582.35	0.32
1582.71	0.32
1583.07	0.04
1583.43	0.04
1583.79	0.24
1584.15	0.32
1584.51	0.4
1584.87	0.4
1585.23	0.52
1585.59	0.32
1585.95	0.28
1586.31	0.2
1586.67	0.28
1587.03	0.2
1587.39	0.28
1587.75	0.2
1588.11	0.32
1588.47	0.24
1588.83	0.2
1589.19	0.12
1589.55	0.12
1589.91	0
1590.27	0.08
1590.63	0.08
1590.99	0.08
1591.35	0.08
1591.71	0.2
1592.07	0.2
1592.42	0.2
1592.78	0.2
1593.14	0.2
1593.5	0.08
1593.86	0
1594.22	0.04
1594.58	0.36
1594.94	0.36
1595.3	0.36
1595.66	0.36
1596.02	0.32
1596.38	0
1596.74	0.16
1597.1	0.24
1597.46	0.32
1597.81	0.32
1598.17	0.32
1598.53	0.16
1598.89	0.24
1599.25	0.2
1599.61	0.56
1599.97	0.56
1600.33	0.56
1600.69	0.44
1601.05	0.68
1601.4	0.48
1601.76	0.12
1602.12	0.24
1602.48	0.2
1602.84	-0.04
1603.2	-0.2
1603.56	0.16
1603.92	0.16
1604.28	0.16
1604.63	0.12
1604.99	0.12
1605.35	0.12
1605.71	0.08
1606.07	0.2
1606.43	0.2
1606.79	0.44
1607.14	0.44
1607.5	0.36
1607.86	0.28
1608.22	0.28
1608.58	0.12
1608.94	0.12
1609.29	0.4
1609.65	0.16
1610.01	0.36
1610.37	0.28
1610.73	0.28
1611.09	0.2
1611.44	0.44
1611.8	0.24
1612.16	0.24
1612.52	0.24
1612.88	0.6
1613.24	0.6
1613.59	0.6
1613.95	0.6
1614.31	0.6
1614.67	0.04
1615.03	0
1615.38	0.08
1615.74	0.08
1616.1	0.08
1616.46	0.08
1616.82	0.36
1617.17	0.28
1617.53	0.28
1617.89	0.28
1618.25	0.28
1618.6	0.44
1618.96	0.44
1619.32	0.44
1619.68	0.44
1620.04	0.44
1620.39	-0.2
1620.75	-0.08
1621.11	0.08
1621.47	0.44
1621.82	0.48
1622.18	1.08
1622.54	1.08
1622.9	1.04
1623.25	-0.32
1623.61	-0.24
1623.97	-0.64
1624.33	-0.24
1624.68	-0.56
1625.04	0.76
1625.4	0.76
1625.75	0.16
1626.11	-0.2
1626.47	0.08
1626.83	-0.24
1627.18	-0.08
1627.54	0.52
1627.9	0.68
1628.26	0.76
1628.61	0.84
1628.97	0.72
1629.33	0.84
1629.68	0.76
1630.04	0.84
1630.4	0.48
1630.75	0.56
1631.11	0.48
1631.47	0.04
1631.83	-0.04
1632.18	0.44
1632.54	0.32
1632.9	0.36
1633.25	0.76
1633.61	0.6
1633.97	0.48
1634.32	0.56
1634.68	0.48
1635.04	0.36
1635.39	0.56
1635.75	1.12
1636.11	0.92
1636.46	0.92
1636.82	0.88
1637.18	0.68
1637.53	0.04
1637.89	0.12
1638.25	0.44
1638.6	0.48
1638.96	0.52
1639.31	0.52
1639.67	0.44
1640.03	0.12
1640.38	0.32
1640.74	0.72
1641.1	1
1641.45	1.08
1641.81	1.12
1642.16	1
1642.52	0.88
1642.88	0.8
1643.23	0.24
1643.59	0.56
1643.95	0.4
1644.3	0.08
1644.66	0.04
1645.01	0.72
1645.37	0.4
1645.73	0.72
1646.08	1.04
1646.44	0.88
1646.79	0.44
1647.15	0.56
1647.51	0.24
1647.86	0.44
1648.22	0.44
1648.57	-0.04
1648.93	-0.2
1649.28	0.28
1649.64	0.28
1650	0.28
1650.35	1.08
1650.71	1.2
1651.06	1.48
1651.42	0.96
1651.77	1.04
1652.13	1.08
1652.48	0.96
1652.84	0.2
1653.2	0.24
1653.55	0.24
1653.91	0.2
1654.26	0.36
1654.62	0.36
1654.97	0.4
1655.33	0.4
1655.68	0.52
1656.04	0.52
1656.39	0.52
1656.75	0.52
1657.1	0.44
1657.46	0.44
1657.81	0.48
1658.17	0.76
1658.52	0.68
1658.88	1.2
1659.23	1
1659.59	1
1659.94	1.08
1660.3	1.28
1660.65	1
1661.01	1
1661.36	1
1661.72	0.8
1662.07	0.96
1662.43	1.2
1662.78	1.2
1663.14	1
1663.49	1.04
1663.85	1.12
1664.2	0.72
1664.56	0.72
1664.91	-1.04
1665.27	-0.68
1665.62	-1.12
1665.98	-1.2
1666.33	-1.04
1666.69	1
1667.04	0.96
1667.39	1.16
1667.75	1.24
1668.1	1.12
1668.46	0.84
1668.81	0.6
1669.17	0.72
1669.52	1.16
1669.88	1.56
1670.23	1.6
1670.58	1.76
1670.94	2.2
1671.29	1.84
1671.65	1.64
1672	1.88
1672.36	1.68
1672.71	1.52
1673.06	1.72
1673.42	1.36
1673.77	1.84
1674.13	1.6
1674.48	2.16
1674.83	2.4
1675.19	2.92
1675.54	2.48
1675.9	3.24
1676.25	2.32
1676.6	2.72
1676.96	3.08
1677.31	3.6
1677.67	4.12
1678.02	3.92
1678.37	3.76
1678.73	3.44
1679.08	3.08
1679.43	1.96
1679.79	2.28
1680.14	1.72
1680.5	0.92
1680.85	1.44
1681.2	1.6
1681.56	2.04
1681.91	2.92
1682.26	3.72
1682.62	3.24
1682.97	3.84
1683.32	3.72
1683.68	3.56
1684.03	3.16
1684.38	3.28
1684.74	3.52
1685.09	3.84
1685.44	3.28
1685.8	4
1686.15	4.88
1686.5	4.12
1686.86	4.16
1687.21	4.32
1687.56	4
1687.92	3.28
1688.27	3.92
1688.62	3.48
1688.98	3.56
1689.33	3.56
1689.68	3.84
1690.03	3.96
1690.39	5
1690.74	5.68
1691.09	6.4
1691.45	5.4
1691.8	5.92
1692.15	5.24
1692.5	6.08
1692.86	5.68
1693.21	8.08
1693.56	6.96
1693.92	7.12
1694.27	4.64
1694.62	4.96
1694.97	3.6
1695.33	4.68
1695.68	4.04
1696.03	5.12
1696.38	4.48
1696.74	3.88
1697.09	2.52
1697.44	2.68
1697.79	2.84
1698.15	3.08
1698.5	2.72
1698.85	3.32
1699.2	2.64
1699.56	2.44
1699.91	3.36
1700.26	4.56
1700.61	4.48
1700.97	5.68
1701.32	5.8
1701.67	4.96
1702.02	4.16
1702.37	4.72
1702.73	4.84
1703.08	4.52
1703.43	4.92
1703.78	5.44
1704.13	4.88
1704.49	4.84
1704.84	5.44
1705.19	5.72
1705.54	5.56
1705.89	6.4
1706.25	6.4
1706.6	6.36
1706.95	5.8
1707.3	6.16
1707.65	6
1708.01	6.32
1708.36	6.76
1708.71	6.84
1709.06	5.72
1709.41	5.76
1709.76	4.64
1710.12	4.84
1710.47	4.68
1710.82	5.48
1711.17	5.52
1711.52	7.48
1711.87	6.12
1712.23	6.48
1712.58	6.6
1712.93	6
1713.28	4.92
1713.63	5.76
1713.98	5.96
1714.33	5.84
1714.69	5.36
1715.04	5.12
1715.39	4.56
1715.74	3.6
1716.09	3.04
1716.44	3.88
1716.79	4.16
1717.14	5
1717.5	5.6
1717.85	6.72
1718.2	6.84
1718.55	8.88
1718.9	8.08
1719.25	9.6
1719.6	9.16
1719.95	8.72
1720.3	6.28
1720.65	6.52
1721.01	5.88
1721.36	5.92
1721.71	6.12
1722.06	6.04
1722.41	6.44
1722.76	5.68
1723.11	5.16
1723.46	6.6
1723.81	8
1724.16	8.12
1724.51	9.2
1724.86	10.92
1725.21	11.96
1725.56	10.72
1725.92	11
1726.27	10.24
1726.62	9.6
1726.97	10.32
1727.32	10.44
1727.67	10.88
1728.02	10.84
1728.37	11.24
1728.72	8.72
1729.07	9.12
1729.42	9.2
1729.77	8.84
1730.12	8.36
1730.47	8.2
1730.82	9.68
1731.17	9.76
1731.52	11
1731.87	12.08
1732.22	12.6
1732.57	11.48
1732.92	11.64
1733.27	14.88
1733.62	15.52
1733.97	15.8
1734.32	17.4
1734.67	17.6
1735.02	14.4
1735.37	14.16
1735.72	14.32
1736.07	13.88
1736.42	14.44
1736.77	15.76
1737.12	15.48
1737.47	18.64
1737.82	20.2
1738.17	19.76
1738.52	21.88
1738.87	24.48
1739.22	22.52
1739.57	21.44
1739.92	22.8
1740.27	20.96
1740.62	22.2
1740.97	24.36
1741.32	24.68
1741.67	27.44
1742.02	29.08
1742.37	28.64
1742.72	31.08
1743.06	35.76
1743.41	37.28
1743.76	37.28
1744.11	33.68
1744.46	31.88
1744.81	32.56
1745.16	34.24
1745.51	32.12
1745.86	34.56
1746.21	32.56
1746.56	28
1746.91	21.6
1747.26	22.04
1747.6	22.48
1747.95	23.4
1748.3	23.2
1748.65	23.2
1749	22.84
1749.35	22.16
1749.7	21.44
1750.05	21.12
1750.4	22.96
1750.75	23.48
1751.09	21.72
1751.44	25.16
1751.79	27.68
1752.14	24.8
1752.49	29.8
1752.84	30.52
1753.19	30.44
1753.54	28.44
1753.88	27.36
1754.23	21.36
1754.58	22.28
1754.93	19.28
1755.28	18.2
1755.63	21.12
1755.98	21.04
1756.32	21.44
1756.67	20.84
1757.02	25.6
1757.37	29.08
1757.72	28.36
1758.07	27.2
1758.42	33.88
1758.76	28.48
1759.11	27.44
1759.46	27.12
1759.81	25.32
1760.16	17.72
1760.5	16.4
1760.85	10.8
1761.2	14.08
1761.55	14.6
1761.9	13.56
1762.25	15.04
1762.59	18.24
1762.94	21.04
1763.29	20
1763.64	18.28
1763.99	18.76
1764.33	14.96
1764.68	8.56
1765.03	9.56
1765.38	13.2
1765.73	10.16
1766.07	10.32
1766.42	12.8
1766.77	17.4
1767.12	16.92
1767.46	23.72
1767.81	25.6
1768.16	22.24
1768.51	18.36
1768.85	15.44
1769.2	8.72
1769.55	10.92
1769.9	14
1770.25	12.4
1770.59	12.92
1770.94	17.56
1771.29	13.76
1771.64	16.28
1771.98	15.64
1772.33	14.4
1772.68	9.52
1773.02	8.84
1773.37	2.72
1773.72	3.8
1774.07	4.04
1774.41	4.4
1774.76	5.12
1775.11	5.2
1775.46	3.32
1775.8	2.8
1776.15	2.2
1776.5	0.96
1776.84	0.8
1777.19	1.12
1777.54	0.92
1777.89	1.52
1778.23	2.16
1778.58	2.8
1778.93	2.56
1779.27	2.68
1779.62	7.6
1779.97	7.48
1780.31	8.84
1780.66	8.72
1781.01	9.32
1781.35	3.84
1781.7	3.72
1782.05	1.6
1782.39	2.68
1782.74	2.32
1783.09	2.44
1783.43	4.92
1783.78	7.56
1784.13	9.4
1784.47	8.56
1784.82	8.52
1785.17	7.04
1785.51	8.16
1785.86	8.4
1786.21	10.08
1786.55	11.28
1786.9	13.12
1787.25	12.68
1787.59	12
1787.94	15.76
1788.29	15.76
1788.63	16.24
1788.98	15.28
1789.32	17.12
1789.67	14
1790.02	19.68
1790.36	24.2
1790.71	27
1791.06	28.88
1791.4	33.88
1791.75	35.04
1792.09	35.52
1792.44	38.08
1792.79	33.16
1793.13	34.52
1793.48	35.68
1793.82	29.64
1794.17	24.28
1794.52	25.32
1794.86	20.2
1795.21	16
1795.55	18.12
1795.9	27.2
1796.24	43.64
1796.59	49.24
1796.94	56
1797.28	61.8
1797.63	55.24
1797.97	44.24
1798.32	41.92
1798.66	48.4
1799.01	48.88
1799.36	50.04
1799.7	59.2
1800.05	65.84
1800.39	52.52
1800.74	68.52
1801.08	84.28
1801.43	83.08
1801.77	80.68
1802.12	85.24
1802.46	79.16
1802.81	70.88
1803.15	63.4
1803.5	62.48
1803.85	59.56
1804.19	48.72
1804.54	55.12
1804.88	60.84
1805.23	62.08
1805.57	77.04
1805.92	93.2
1806.26	94.72
1806.61	96.6
1806.95	111.24
1807.3	129.64
1807.64	134.92
1807.99	141.8
1808.33	142.36
1808.68	130.72
1809.02	129.4
1809.37	146.04
1809.71	144.88
1810.06	152.56
1810.4	163.52
1810.75	144.04
1811.09	137
1811.43	161.04
1811.78	188.08
1812.12	211
1812.47	225.72
1812.81	213.64
1813.16	199.24
1813.5	179.24
1813.85	159.48
1814.19	153.92
1814.54	148.4
1814.88	130.52
1815.23	122.56
1815.57	107.2
1815.91	94.68
1816.26	102.24
1816.6	133
1816.95	151.12
1817.29	177.48
1817.64	204.72
1817.98	228.16
1818.32	242.28
1818.67	245.24
1819.01	246.52
1819.36	249.28
1819.7	224.16
1820.05	200.12
1820.39	208.12
1820.73	201.76
1821.08	192.44
1821.42	202.56
1821.77	187.92
1822.11	155.92
1822.45	155.2
1822.8	152.32
1823.14	143.64
1823.49	174.2
1823.83	219.32
1824.17	243.52
1824.52	265.64
1824.86	281.72
1825.2	263.92
1825.55	234.44
1825.89	203.4
1826.24	194.24
1826.58	219.32
1826.92	236.68
1827.27	243.08
1827.61	272.44
1827.95	267.36
1828.3	227.36
1828.64	206.88
1828.98	188.56
1829.33	175.24
1829.67	214.4
1830.02	241.16
1830.36	264.72
1830.7	312.92
1831.05	326.8
1831.39	291.92
1831.73	288.32
1832.08	274.8
1832.42	239.88
1832.76	236.56
1833.1	228.76
1833.45	205.08
1833.79	198.68
1834.13	201.44
1834.48	184.8
1834.82	196.24
1835.16	207.12
1835.51	198.64
1835.85	202.16
1836.19	206.56
1836.54	182.56
1836.88	167.52
1837.22	154.36
1837.56	136.2
1837.91	140.96
1838.25	177.12
1838.59	199.84
1838.94	225.2
1839.28	238.2
1839.62	223.16
1839.96	197.44
1840.31	181.28
1840.65	166.68
1840.99	186.24
1841.34	240.8
1841.68	263.16
1842.02	291.64
1842.36	321.8
1842.71	291.96
1843.05	237
1843.39	241.8
1843.73	250.6
1844.08	262.36
1844.42	307.76
1844.76	333.96
1845.1	313.88
1845.45	291
1845.79	280
1846.13	251.88
1846.47	240.6
1846.81	232.04
1847.16	232.04
1847.5	235.44
1847.84	253.56
1848.18	268.84
1848.53	279.56
1848.87	274.92
1849.21	256.44
1849.55	232.72
1849.89	212.6
1850.24	205.28
1850.58	195.52
1850.92	188.64
1851.26	182.72
1851.6	179.64
1851.95	179.76
1852.29	187.16
1852.63	186.36
1852.97	184.76
1853.31	178.8
1853.66	173.44
1854	175.6
1854.34	180.56
1854.68	192.2
1855.02	201.36
1855.36	204.6
1855.71	197.12
1856.05	193.24
1856.39	176.88
1856.73	158.88
1857.07	153.08
1857.41	149.12
1857.76	146.36
1858.1	151.76
1858.44	152.92
1858.78	154.44
1859.12	147.08
1859.46	132.4
1859.8	125.2
1860.15	119.48
1860.49	119.08
1860.83	129
1861.17	143.36
1861.51	140.68
1861.85	145.08
1862.19	128.36
1862.53	111.24
1862.88	106.2
1863.22	101.16
1863.56	98.24
1863.9	110.16
1864.24	116.6
1864.58	100.12
1864.92	100.6
1865.26	95.12
1865.6	78.76
1865.94	70.48
1866.29	67.2
1866.63	56.96
1866.97	54.12
1867.31	51.32
1867.65	49.2
1867.99	52.72
1868.33	52.52
1868.67	48.16
1869.01	52.32
1869.35	58.88
1869.69	71.64
1870.03	80.64
1870.37	88.64
1870.72	91.6
1871.06	85.8
1871.4	68.04
1871.74	58.12
1872.08	51.6
1872.42	52.52
1872.76	64.32
1873.1	69.92
1873.44	69.4
1873.78	68.92
1874.12	58.76
1874.46	40.16
1874.8	43.44
1875.14	55.92
1875.48	59.36
1875.82	63.4
1876.16	66.4
1876.5	64.36
1876.84	56.96
1877.18	51.96
1877.52	46.64
1877.86	41.08
1878.2	31.32
1878.54	22.16
1878.88	21.56
1879.22	20.48
1879.56	20
1879.9	20.08
1880.24	20.6
1880.58	19.12
1880.92	24.04
1881.26	24.72
1881.6	22.88
1881.94	23
1882.28	22.44
1882.62	27.28
1882.96	39.84
1883.3	51.56
1883.64	53.16
1883.98	55
1884.32	47.28
1884.66	37.48
1885	26.72
1885.34	27.64
1885.68	27.72
1886.02	26.48
1886.36	23.52
1886.7	24.92
1887.04	23
1887.38	22.92
1887.72	21.84
1888.06	19
1888.39	20.56
1888.73	25.24
1889.07	31.96
1889.41	44.28
1889.75	49.24
1890.09	55.24
1890.43	57.32
1890.77	51.44
1891.11	44.68
1891.45	43.24
1891.79	36.52
1892.13	29.44
1892.47	28.52
1892.8	24.92
1893.14	25.84
1893.48	26.32
1893.82	31.64
1894.16	33.12
1894.5	32.68
1894.84	31.76
1895.18	32.08
1895.52	27.2
1895.86	26.68
1896.19	34.16
1896.53	35.4
1896.87	35.56
1897.21	41.48
1897.55	45.6
1897.89	46.32
1898.23	58.36
1898.57	61
1898.9	58.56
1899.24	57.64
1899.58	58.96
1899.92	51.72
1900.26	55.04
1900.6	70.16
1900.94	71.04
1901.27	66.48
1901.61	69.32
1901.95	71.8
1902.29	63
1902.63	72.76
1902.97	76.96
1903.3	75.76
1903.64	72.8
1903.98	79.64
1904.32	72.92
1904.66	73.84
1905	76.84
1905.33	77.96
1905.67	72.28
1906.01	78.96
1906.35	84.2
1906.69	85.8
1907.02	88.88
1907.36	89.36
1907.7	86.92
1908.04	82.64
1908.38	81.76
1908.71	79.96
1909.05	81.48
1909.39	79.88
1909.73	82
1910.07	86.2
1910.4	89.24
1910.74	90.36
1911.08	91.92
1911.42	93.92
1911.76	92.92
1912.09	94.68
1912.43	96.08
1912.77	97.2
1913.11	97.76
1913.44	96.12
1913.78	97.92
1914.12	98.12
1914.46	101.28
1914.79	100.84
1915.13	103.8
1915.47	103.28
1915.81	107.2
1916.14	108.52
1916.48	111.44
1916.82	111.8
1917.16	114.28
1917.49	115.36
1917.83	115.56
1918.17	118.2
1918.5	120.36
1918.84	119.84
1919.18	118.6
1919.52	119.6
1919.85	121
1920.19	122
1920.53	127.64
1920.87	129.28
1921.2	130.16
1921.54	130.64
1921.88	133.8
1922.21	131.2
1922.55	133.72
1922.89	135.28
1923.22	135.8
1923.56	133.64
1923.9	135.16
1924.23	134.2
1924.57	132.36
1924.91	133.92
1925.25	136.64
1925.58	135.8
1925.92	137.04
1926.26	140.36
1926.59	137.64
1926.93	135.52
1927.27	136.84
1927.6	136.76
1927.94	134.32
1928.28	138.96
1928.61	142.6
1928.95	142.44
1929.29	141.96
1929.62	147.72
1929.96	145.2
1930.29	143.88
1930.63	146.48
1930.97	148.88
1931.3	145.88
1931.64	148.56
1931.98	149.44
1932.31	146.64
1932.65	149.2
1932.99	151.96
1933.32	151.04
1933.66	151.56
1933.99	154.48
1934.33	150.28
1934.67	148.68
1935	150
1935.34	149.44
1935.67	150.08
1936.01	151.8
1936.35	152.96
1936.68	153.56
1937.02	155.8
1937.35	153.44
1937.69	153.92
1938.03	153.24
1938.36	149.24
1938.7	147.48
1939.03	151
1939.37	151.84
1939.7	151.88
1940.04	154.76
1940.38	155.44
1940.71	153.28
1941.05	153.72
1941.38	154.36
1941.72	153.36
1942.05	153.24
1942.39	155.36
1942.73	154
1943.06	154.32
1943.4	156.04
1943.73	154.2
1944.07	152
1944.4	152.36
1944.74	151.96
1945.07	151
1945.41	152.72
1945.74	152.56
1946.08	153.56
1946.42	154.92
1946.75	154.8
1947.09	153.24
1947.42	154.12
1947.76	151.4
1948.09	146.56
1948.43	143.44
1948.76	142.6
1949.1	139.68
1949.43	138.6
1949.77	139.88
1950.1	139.4
1950.44	139.44
1950.77	139.88
1951.11	140.6
1951.44	139.24
1951.78	139.24
1952.11	138.56
1952.45	137.64
1952.78	135.12
1953.12	136.36
1953.45	137.4
1953.79	135.56
1954.12	134.16
1954.46	134.56
1954.79	131.96
1955.12	129.36
1955.46	130.32
1955.79	131.2
1956.13	128.32
1956.46	127.76
1956.8	127.2
1957.13	125.56
1957.47	122
1957.8	123.08
1958.14	124.2
1958.47	124.48
1958.8	122.92
1959.14	122.56
1959.47	120.84
1959.81	118.28
1960.14	116.28
1960.48	115.12
1960.81	114.24
1961.14	112.6
1961.48	110.64
1961.81	110.56
1962.15	109.56
1962.48	109.64
1962.82	110.56
1963.15	111.12
1963.48	109.96
1963.82	111.2
1964.15	108.76
1964.49	106.72
1964.82	105.24
1965.15	101.52
1965.49	96.68
1965.82	96.48
1966.16	96.28
1966.49	95.64
1966.82	93.64
1967.16	92.88
1967.49	91.68
1967.83	90.08
1968.16	85.72
1968.49	85.28
1968.83	84.52
1969.16	82.92
1969.49	80.4
1969.83	82.08
1970.16	83
1970.49	81.24
1970.83	79.48
1971.16	78
1971.5	73.76
1971.83	72.04
1972.16	71.2
1972.5	68.48
1972.83	66.92
1973.16	66.68
1973.5	66.92
1973.83	66.4
1974.16	67.24
1974.5	66.44
1974.83	66.16
1975.16	63.92
1975.5	60.28
1975.83	58.8
1976.16	56.36
1976.49	54.12
1976.83	50.84
1977.16	52.56
1977.49	48.92
1977.83	49.08
1978.16	48.36
1978.49	47.84
1978.83	44.6
1979.16	46.16
1979.49	43
1979.83	40.96
1980.16	37.64
1980.49	34.4
1980.82	31.64
1981.16	32.92
1981.49	31.44
1981.82	33.12
1982.15	35.04
1982.49	33.68
1982.82	32
1983.15	33.28
1983.49	32
1983.82	29.64
1984.15	28.52
1984.48	28.36
1984.82	25.4
1985.15	23.8
1985.48	24.84
1985.81	24.32
1986.15	21.64
1986.48	20.52
1986.81	20
1987.14	19.16
1987.48	18.88
1987.81	19.48
1988.14	17.8
1988.47	15.44
1988.81	14.48
1989.14	13.88
1989.47	11.56
1989.8	11.44
1990.13	12.56
1990.47	9.8
1990.8	9.64
1991.13	11.04
1991.46	12
1991.79	9.76
1992.13	9.48
1992.46	9.6
1992.79	9.04
1993.12	6.88
1993.45	7.92
1993.79	8.48
1994.12	6.24
1994.45	4.44
1994.78	4.96
1995.11	5.16
1995.45	4.8
1995.78	5.48
1996.11	5.44
1996.44	4.84
1996.77	4.08
1997.1	3.88
1997.44	3.36
1997.77	3.68
1998.1	4.16
1998.43	3.8
1998.76	3.68
1999.09	4.12
1999.43	1.96
1999.76	1.32
2000.09	1
2000.42	1.48
2000.75	-0.32
2001.08	1.2
2001.41	1.72
2001.75	1.76
2002.08	1.64
2002.41	3.76
2002.74	4.2
2003.07	4.16
2003.4	4.16
2003.73	4.04
2004.06	3.32
2004.4	3.04
2004.73	3.08
2005.06	3.96
2005.39	4.24
2005.72	4.84
2006.05	5.48
2006.38	5.36
2006.71	5
2007.04	4.76
2007.37	3.92
2007.71	3.92
2008.04	4.84
2008.37	4.8
2008.7	4.92
2009.03	5.56
2009.36	6.32
2009.69	5.56
2010.02	6.2
2010.35	6.88
2010.68	7.04
2011.01	7.24
2011.34	8.36
2011.67	9.52
2012.01	9.84
2012.34	10.52
2012.67	11.32
2013	11.48
2013.33	10.8
2013.66	10.68
2013.99	11.68
2014.32	10.6
2014.65	10.96
2014.98	12.08
2015.31	12.08
2015.64	11.16
2015.97	13.04
2016.3	14.04
2016.63	12.48
2016.96	13.76
2017.29	13.76
2017.62	13.44
2017.95	13.24
2018.28	14.4
2018.61	14.08
2018.94	15.2
2019.27	15.2
2019.6	14.04
2019.93	14.12
2020.26	13.84
2020.59	13.6
2020.92	13.16
2021.25	13.76
2021.58	13.68
2021.91	14.88
2022.24	14.56
2022.57	13.88
2022.9	14
2023.23	12.96
2023.56	11.76
2023.89	12.32
2024.22	13.4
2024.55	12.76
2024.88	13.28
2025.21	12.92
2025.54	12.72
2025.87	11.2
2026.2	10.72
2026.53	10.84
2026.86	11.16
2027.19	11
2027.52	10.92
2027.85	11.44
2028.18	10.56
2028.51	10.04
2028.84	8.88
2029.16	9.12
2029.49	8
2029.82	9.08
2030.15	8.48
2030.48	8.44
2030.81	8.48
2031.14	9.88
2031.47	8.88
2031.8	8
2032.13	8.32
2032.46	8.12
2032.79	7.56
2033.12	8.44
2033.44	9.52
2033.77	10.04
2034.1	9.48
2034.43	9.24
2034.76	7.68
2035.09	6.48
2035.42	5.92
2035.75	6.28
2036.08	5.88
2036.41	6.92
2036.73	6.92
2037.06	6.84
2037.39	6.32
2037.72	5.88
2038.05	5.32
2038.38	5.32
2038.71	4.6
2039.04	3.16
2039.36	3.52
2039.69	2.88
2040.02	3.4
2040.35	3
2040.68	4.12
2041.01	4.04
2041.34	3.96
2041.66	3.68
2041.99	3.36
2042.32	3.16
2042.65	2.64
2042.98	2.96
2043.31	3.32
2043.63	3.56
2043.96	3.4
2044.29	2.8
2044.62	2.08
2044.95	1.52
2045.28	1.2
2045.6	1.12
2045.93	1.56
2046.26	1.36
2046.59	1.6
2046.92	1.36
2047.24	1.16
2047.57	0.92
2047.9	1.4
2048.23	1.16
2048.56	1.28
2048.88	1.96
2049.21	2.36
2049.54	2.04
2049.87	2.04
2050.2	2.32
2050.52	2.28
2050.85	2.44
2051.18	2.6
2051.51	2.52
2051.83	2.56
2052.16	2.08
2052.49	1.52
2052.82	1.36
2053.15	1.08
2053.47	0.84
2053.8	0.72
2054.13	0.52
2054.46	0.4
2054.78	0.6
2055.11	0.84
2055.44	0.68
2055.77	0.68
2056.09	0.96
2056.42	1.24
2056.75	1.36
2057.08	2.12
2057.4	2.12
2057.73	2.04
2058.06	1.72
2058.38	1.24
2058.71	0.96
2059.04	1.2
2059.37	1.12
2059.69	1.36
2060.02	1.32
2060.35	1.32
2060.67	1.4
2061	1.48
2061.33	0.88
2061.66	1
2061.98	0.8
2062.31	0.52
2062.64	0.52
2062.96	0.8
2063.29	0.64
2063.62	0.4
2063.94	0.56
2064.27	0.8
2064.6	0.4
2064.92	0.4
2065.25	0.36
2065.58	0.16
2065.91	-0.16
2066.23	0.4
2066.56	0.68
2066.89	0.84
2067.21	1.08
2067.54	1.48
2067.87	1.24
2068.19	1.08
2068.52	1.12
2068.84	1.28
2069.17	1.44
2069.5	1.88
2069.82	1.56
2070.15	1.64
2070.48	1.48
2070.8	1.8
2071.13	2.24
2071.46	2.44
2071.78	2.2
2072.11	1.96
2072.43	1.64
2072.76	0.8
2073.09	1.6
2073.41	2.16
2073.74	2.16
2074.07	1.72
2074.39	1.72
2074.72	1.48
2075.04	1.16
2075.37	1.64
2075.7	1.76
2076.02	1.88
2076.35	1.48
2076.67	1.36
2077	0.88
2077.33	0.64
2077.65	0.48
2077.98	0.72
2078.3	0.88
2078.63	1.12
2078.95	1.32
2079.28	1.44
2079.61	1.04
2079.93	0.72
2080.26	0.48
2080.58	0.16
2080.91	1.4
2081.23	1.44
2081.56	1.52
2081.89	1.92
2082.21	1.96
2082.54	0.64
2082.86	0.6
2083.19	0.64
2083.51	0.32
2083.84	0.88
2084.16	1.32
2084.49	1.36
2084.81	1.64
2085.14	1.56
2085.46	0.92
2085.79	0.44
2086.12	0.64
2086.44	0.52
2086.77	0.8
2087.09	0.96
2087.42	1.44
2087.74	1.8
2088.07	1.8
2088.39	1.6
2088.72	1.56
2089.04	1.08
2089.37	0.6
2089.69	0.36
2090.02	0.44
2090.34	-0.08
2090.67	-0.08
2090.99	-2.24
2091.32	-2.04
2091.64	-1.96
2091.97	-1.44
2092.29	-1
2092.62	1.04
2092.94	0.88
2093.26	1
2093.59	1.4
2093.91	-0.08
2094.24	0.04
2094.56	-0.04
2094.89	-0.4
2095.21	-0.92
2095.54	0.12
2095.86	0.28
2096.19	0.44
2096.51	0.72
2096.84	1.12
2097.16	1.12
2097.48	1.16
2097.81	1.44
2098.13	1.28
2098.46	0.76
2098.78	0.88
2099.11	0.56
2099.43	0.12
2099.75	-2.10945e-17
2100.08	0.32
2100.4	0.2
2100.73	0.2
2101.05	0.36
2101.38	0.68
2101.7	0.8
2102.02	1
2102.35	1
2102.67	0.84
2103	0.6
2103.32	0.52
2103.64	0.32
2103.97	0.4
2104.29	0.4
2104.62	0.6
2104.94	0.4
2105.26	-0.2
2105.59	-0.2
2105.91	0.12
2106.23	-0.04
2106.56	0.08
2106.88	0.72
2107.21	0.68
2107.53	0.76
2107.85	1.08
2108.18	1.24
2108.5	1.2
2108.82	1.32
2109.15	1.28
2109.47	0.84
2109.79	0.52
2110.12	0.64
2110.44	0.48
2110.76	0.28
2111.09	0.44
2111.41	0.64
2111.73	0.52
2112.06	0.52
2112.38	0.36
2112.7	-0.24
2113.03	-0.12
2113.35	0.28
2113.67	0.28
2114	0.6
2114.32	1.24
2114.64	1.2
2114.97	1.2
2115.29	1.2
2115.61	0.88
2115.94	0.68
2116.26	0.56
2116.58	0.36
2116.91	-0.32
2117.23	-0.08
2117.55	-0.08
2117.87	-0.24
2118.2	-0.04
2118.52	0.68
2118.84	0.44
2119.17	0.44
2119.49	0.44
2119.81	0.08
2120.13	0.04
2120.46	0.04
2120.78	-0.96
2121.1	-0.96
2121.42	-1
2121.75	-1
2122.07	-0.76
2122.39	0.24
2122.72	0.24
2123.04	0.24
2123.36	0.28
2123.68	0.04
2124.01	0.04
2124.33	0.04
2124.65	0.04
2124.97	0
2125.29	0.08
2125.62	0.2
2125.94	0.2
2126.26	0.2
2126.58	0.32
2126.91	-0.64
2127.23	-0.68
2127.55	-0.32
2127.87	-0.16
2128.2	0.04
2128.52	1.2
2128.84	1.12
2129.16	0.92
2129.48	0.76
2129.81	0.6
2130.13	0.6
2130.45	0.76
2130.77	1.04
2131.09	1.16
2131.42	1.16
2131.74	0.88
2132.06	0.72
2132.38	0.28
2132.7	0.36
2133.02	0.52
2133.35	1
2133.67	1.08
2133.99	1.16
2134.31	0.36
2134.63	0.08
2134.96	-0.28
2135.28	-0.12
2135.6	-0.16
2135.92	0.48
2136.24	0.44
2136.56	0.64
2136.88	0.6
2137.21	0.56
2137.53	0.52
2137.85	0.56
2138.17	-0.12
2138.49	-0.32
2138.81	-0.24
2139.13	-0.24
2139.46	-0.08
2139.78	0.28
2140.1	0.44
2140.42	0.44
2140.74	0.48
2141.06	0.32
2141.38	0.32
2141.7	0.4
2142.03	0.32
2142.35	0.36
2142.67	0.52
2142.99	0.52
2143.31	0.8
2143.63	1.24
2143.95	1.16
2144.27	0.96
2144.59	1.08
2144.91	0.44
2145.24	-6.66107e-18
2145.56	-6.66107e-18
2145.88	0.08
2146.2	0.08
2146.52	0.32
2146.84	0.48
2147.16	0.48
2147.48	0.4
2147.8	0.32
2148.12	0.56
2148.44	0.4
2148.76	0.4
2149.08	0.6
2149.41	0.68
2149.73	0.36
2150.05	0.4
2150.37	0.4
2150.69	0.44
2151.01	0.32
2151.33	0.56
2151.65	0.76
2151.97	0.8
2152.29	0.56
2152.61	0.2
2152.93	0.08
2153.25	0.08
2153.57	0.16
2153.89	0.52
2154.21	0.48
2154.53	0.36
2154.85	0.16
2155.17	0.04
2155.49	-0.48
2155.81	-0.08
2156.13	-0.12
2156.45	-0.16
2156.77	-0.16
2157.09	0.28
2157.41	0.4
2157.73	0.68
2158.05	0.68
2158.37	0.76
2158.69	0.48
2159.01	0.52
2159.33	0.24
2159.65	0.28
2159.97	0.36
2160.29	0.36
2160.61	0.2
2160.93	0.24
2161.25	0.48
2161.57	0.36
2161.89	0.36
2162.21	0.44
2162.53	0.52
2162.85	-0.36
2163.17	-0.4
2163.49	-0.2
2163.81	-0.24
2164.13	-0.36
2164.45	-0.36
2164.77	-0.36
2165.08	-0.56
2165.4	-0.52
2165.72	-0.44
2166.04	0.16
2166.36	0.32
2166.68	0.32
2167	0.32
2167.32	0.72
2167.64	1.36
2167.96	1.2
2168.28	1.2
2168.6	1.12
2168.92	0.68
2169.24	0.16
2169.55	0.16
2169.87	0.28
2170.19	0.36
2170.51	0.32
2170.83	0.2
2171.15	0.2
2171.47	0.28
2171.79	0.2
2172.11	0.36
2172.43	0.44
2172.74	0.44
2173.06	0.32
2173.38	0.4
2173.7	0.24
2174.02	0.16
2174.34	0.24
2174.66	0.16
2174.98	0.08
2175.29	0.08
2175.61	0.08
2175.93	0.08
2176.25	0.08
2176.57	0.16
2176.89	0.28
2177.21	0.28
2177.52	0.28
2177.84	0.28
2178.16	0.28
2178.48	0.16
2178.8	0.56
2179.12	0.64
2179.43	0.88
2179.75	-0.04
2180.07	-3.10861e-17
2180.39	-0.28
2180.71	-0.44
2181.03	-0.68
2181.34	0.16
2181.66	0.12
2181.98	0.24
2182.3	0.28
2182.62	0.28
2182.93	-0.12
2183.25	0.24
2183.57	0.04
2183.89	0.28
2184.21	0.28
2184.52	1
2184.84	0.64
2185.16	0.68
2185.48	0.48
2185.8	0.52
2186.11	0.2
2186.43	0.44
2186.75	0.36
2187.07	-0.04
2187.39	-0.88
2187.7	-0.6
2188.02	-1.24
2188.34	-1.24
2188.66	-0.84
2188.97	-3.8025e-17
2189.29	-0.28
2189.61	0.12
2189.93	0.12
2190.24	0.56
2190.56	0.64
2190.88	0.64
2191.2	0.64
2191.51	0.64
2191.83	0.12
2192.15	0
2192.47	0.04
2192.78	0.04
2193.1	0.04
2193.42	0.08
2193.74	0.12
2194.05	0.24
2194.37	0.36
2194.69	0.44
2195	0.08
2195.32	0.32
2195.64	0.4
2195.96	0.48
2196.27	0.4
2196.59	0.24
2196.91	-0.04
2197.22	-0.24
2197.54	-0.44
2197.86	-0.36
2198.18	0.4
2198.49	0.44
2198.81	0.48
2199.13	0.48
2199.44	0.44
2199.76	0.28
2200.08	0.4
2200.39	0.48
2200.71	0.8
2201.03	0.84
2201.34	0.72
2201.66	0.56
2201.98	0.48
2202.29	0.16
2202.61	0.08
2202.93	0.2
2203.24	0.2
2203.56	0.16
2203.88	0.16
2204.19	0.16
2204.51	0.16
2204.83	0.16
2205.14	0.52
2205.46	0.52
2205.78	0.52
2206.09	0.48
2206.41	0.32
2206.72	-0.28
2207.04	-0.28
2207.36	-0.68
2207.67	-0.76
2207.99	-0.6
2208.31	-0.36
2208.62	-0.24
2208.94	0.16
2209.25	0.36
2209.57	0.76
2209.89	0.72
2210.2	1.16
2210.52	1.16
2210.83	0.96
2211.15	0.64
2211.47	0.88
2211.78	0.44
2212.1	0.04
2212.41	0.04
2212.73	0.24
2213.05	-2.88669e-17
2213.36	-0.12
2213.68	0.28
2213.99	0.28
2214.31	0
2214.62	0.28
2214.94	0.48
2215.26	0.48
2215.57	0.48
2215.89	0.48
2216.2	0.2
2216.52	0
2216.83	0
2217.15	0
2217.46	0.16
2217.78	0.16
2218.1	-0.04
2218.41	2.4425e-17
2218.73	2.4425e-17
2219.04	-0.16
2219.36	-0.08
2219.67	0.12
2219.99	0.08
2220.3	0.08
2220.62	0.16
2220.93	0.08
2221.25	0.08
2221.56	0.08
2221.88	0.08
2222.19	0
2222.51	0
2222.82	-1.4
2223.14	-1.4
2223.45	-1.32
2223.77	-1.32
2224.08	-1.24
2224.4	0.16
2224.71	0.16
2225.03	0.36
2225.34	0.36
2225.66	-1.12
2225.97	-1.12
2226.29	-1.04
2226.6	-1.08
2226.92	-0.88
2227.23	0.52
2227.55	0.52
2227.86	0.92
2228.18	0.68
2228.49	0.52
2228.81	0.52
2229.12	0.64
2229.44	0.32
2229.75	0.44
2230.07	0.4
2230.38	0.64
2230.69	0.52
2231.01	0.44
2231.32	0.32
2231.64	0.32
2231.95	0.12
2232.27	0.12
2232.58	0.04
2232.9	0.04
2233.21	0.04
2233.52	0
2233.84	0
2234.15	0
2234.47	0.08
2234.78	0.36
2235.1	0.36
2235.41	0.44
2235.72	0.8
2236.04	0.8
2236.35	0.8
2236.67	0.32
2236.98	0.48
2237.29	0.12
2237.61	0.2
2237.92	-0.04
2238.24	0.44
2238.55	0.2
2238.86	0.2
2239.18	0.04
2239.49	-0.64
2239.8	-0.64
2240.12	-0.64
2240.43	-0.64
2240.75	-0.52
2241.06	0.12
2241.37	0.12
2241.69	0.12
2242	0.12
2242.31	0.2
2242.63	0.32
2242.94	0.32
2243.26	-0.24
2243.57	-0.24
2243.88	-0.32
2244.2	-0.44
2244.51	-0.44
2244.82	0.32
2245.14	0.32
2245.45	0.36
2245.76	0.36
2246.08	0.56
2246.39	0.36
2246.7	0.36
2247.02	0.44
2247.33	0.44
2247.64	0.4
2247.96	0.4
2248.27	0.4
2248.58	-0.6
2248.9	-0.6
2249.21	-0.76
2249.52	-0.6
2249.83	-0.32
2250.15	0.44
2250.46	0.52
2250.77	0.6
2251.09	0.48
2251.4	0.2
2251.71	0.2
2252.03	0.12
2252.34	0.04
2252.65	0.16
2252.96	0.44
2253.28	0.44
2253.59	0.68
2253.9	0.68
2254.21	0.8
2254.53	0.52
2254.84	0.2
2255.15	-0.04
2255.47	-5.88417e-17
2255.78	-0.08
2256.09	-0.08
2256.4	0.24
2256.72	0.24
2257.03	0.2
2257.34	0.2
2257.65	0.28
2257.97	0.28
2258.28	0.36
2258.59	0.36
2258.9	0.24
2259.22	0.2
2259.53	0.2
2259.84	0.32
2260.15	0.32
2260.46	0.24
2260.78	0.24
2261.09	0.44
2261.4	0.36
2261.71	0.6
2262.03	0.64
2262.34	0.6
2262.65	0.4
2262.96	0.64
2263.27	0.8
2263.59	0.76
2263.9	0.96
2264.21	0.96
2264.52	0.64
2264.83	0.24
2265.15	0.68
2265.46	0.48
2265.77	0.48
2266.08	0.48
2266.39	0.48
2266.7	0.04
2267.02	0.28
2267.33	-0.12
2267.64	-0.16
2267.95	-0.16
2268.26	-0.16
2268.57	-0.4
2268.89	0
2269.2	0
2269.51	0
2269.82	0
2270.13	0
2270.44	0
2270.76	-0.4
2271.07	-0.4
2271.38	-1
2271.69	-0.88
2272	-0.88
2272.31	-0.68
2272.62	-1.48
2272.93	-0.84
2273.25	-0.6
2273.56	-0.44
2273.87	0.24
2274.18	1.04
2274.49	1.04
2274.8	0.76
2275.11	0.6
2275.42	0.2
2275.74	0.2
2276.05	0.16
2276.36	0.2
2276.67	0.2
2276.98	0.12
2277.29	0.12
2277.6	0.16
2277.91	0.04
2278.22	-0.36
2278.53	-0.36
2278.85	-0.32
2279.16	-1.32
2279.47	-1.32
2279.78	-0.6
2280.09	-0.6
2280.4	-0.64
2280.71	0.32
2281.02	0.4
2281.33	0.08
2281.64	0.12
2281.95	0.2
2282.26	0.2
2282.57	0.24
2282.88	0.28
2283.19	0.24
2283.5	0.16
2283.82	0.2
2284.13	0.08
2284.44	0.04
2284.75	-0.56
2285.06	-0.44
2285.37	-0.12
2285.68	-0.12
2285.99	-0.12
2286.3	0.84
2286.61	0.72
2286.92	0.4
2287.23	0.48
2287.54	0.48
2287.85	0.12
2288.16	0.12
2288.47	0.08
2288.78	0.12
2289.09	0.12
2289.4	0.12
2289.71	0.12
2290.02	0.12
2290.33	0
2290.64	0.08
2290.95	0.04
2291.26	0.12
2291.57	0.12
2291.88	-0.28
2292.19	-0.36
2292.5	-0.32
2292.81	-0.4
2293.12	-0.4
2293.43	0
2293.74	0
2294.05	0
2294.36	0
2294.67	0
2294.98	0
2295.29	0
2295.6	0
2295.91	0
2296.21	0
2296.52	0
2296.83	0
2297.14	0
2297.45	0
2297.76	0
2298.07	0
2298.38	0
2298.69	0
2299	0
2299.31	0
2299.62	0
2299.93	0
2300.24	0
2300.55	0
2300.85	0
2301.16	0
2301.47	0
2301.78	0
2302.09	0
2302.4	0
2302.71	0
2303.02	0
2303.33	0
2303.64	0
2303.94	0
2304.25	0
2304.56	0
2304.87	0
2305.18	0
2305.49	0
2305.8	0
2306.11	0
2306.42	0
2306.72	0
2307.03	0
2307.34	0
2307.65	0
2307.96	0
2308.27	0
2308.58	0
2308.88	0
2309.19	0
2309.5	0
2309.81	0
2310.12	0
2310.43	0
2310.74	0
2311.04	0
2311.35	0
2311.66	0
2311.97	0
2312.28	0
2312.59	0
2312.89	0
2313.2	0
2313.51	0
2313.82	0
2314.13	0
2314.43	0
2314.74	0
2315.05	0
2315.36	0
2315.67	0
2315.97	0
2316.28	0
2316.59	0
2316.9	0
2317.21	0
2317.51	0
2317.82	0
2318.13	0
2318.44	0
2318.75	0
2319.05	0
2319.36	0
2319.67	0
2319.98	0
2320.28	0
2320.59	0
2320.9	0
2321.21	0
2321.51	0
2321.82	0
2322.13	0
2322.44	0
2322.74	0
2323.05	0
2323.36	0
2323.67	0
2323.97	0
2324.28	0
2324.59	0
2324.9	0
2325.2	0
2325.51	0
2325.82	0
2326.13	0
2326.43	0
2326.74	0
2327.05	0
2327.35	0
2327.66	0
2327.97	0
2328.27	0
2328.58	0
2328.89	0
2329.2	0
2329.5	0
2329.81	0
2330.12	0
2330.42	0
2330.73	0
2331.04	0
2331.34	0
2331.65	0
2331.96	0
2332.26	0
2332.57	0
2332.88	0
2333.18	0
2333.49	0
2333.8	0
2334.1	0
2334.41	0
2334.72	0
2335.02	0
2335.33	0
2335.64	0
2335.94	0
2336.25	0
2336.56	0
2336.86	0
2337.17	0
2337.48	0
2337.78	0
2338.09	0
2338.39	0
2338.7	0
2339.01	0
2339.31	0
2339.62	0
2339.93	0
2340.23	0
2340.54	0
2340.84	0
2341.15	0
2341.46	0
2341.76	0
2342.07	0
2342.37	0
2342.68	0
2342.99	0
2343.29	0
2343.6	0
2343.9	0
2344.21	0
2344.51	0
2344.82	0
2345.13	0
2345.43	0
2345.74	0
2346.04	0
2346.35	0
2346.65	0
2346.96	0
2347.27	0
2347.57	0
2347.88	0
2348.18	0
2348.49	0
2348.79	0
2349.1	0
2349.4	0
2349.71	0
2350.01	0
2350.32	0
2350.63	0
2350.93	0
2351.24	0
2351.54	0
2351.85	0
2352.15	0
2352.46	0
2352.76	0
2353.07	0
2353.37	0
2353.68	0
2353.98	0
2354.29	0
2354.59	0
2354.9	0
2355.2	0
2355.51	0
2355.81	0
2356.12	0
2356.42	0
2356.73	0
2357.03	0
2357.34	0
2357.64	0
2357.95	0
2358.25	0
2358.55	0
2358.86	0
2359.16	0
2359.47	0
2359.77	0
2360.08	0
2360.38	0
2360.69	0
2360.99	0
2361.3	0
2361.6	0
2361.9	0
2362.21	0
2362.51	0
2362.82	0
2363.12	0
2363.43	0
2363.73	0
2364.04	0
2364.34	0
2364.64	0
2364.95	0
2365.25	0
2365.56	0
2365.86	0
2366.16	0
2366.47	0
2366.77	0
2367.08	0
2367.38	0
2367.68	0
2367.99	0
2368.29	0
2368.6	0
2368.9	0
2369.2	0
2369.51	0
2369.81	0
2370.12	0
2370.42	0
2370.72	0
2371.03	0
2371.33	0
2371.63	0
2371.94	0
2372.24	0
2372.55	0
2372.85	0
2373.15	0
2373.46	0
2373.76	0
2374.06	0
2374.37	0
2374.67	0
2374.97	0
2375.28	0
2375.58	0
2375.88	0
2376.19	0
2376.49	0
2376.79	0
2377.1	0
2377.4	0
2377.7	0
2378.01	0
2378.31	0
2378.61	0
2378.92	0
2379.22	0
2379.52	0
2379.82	0
2380.13	0
2380.43	0
2380.73	0
2381.04	0
2381.34	0
2381.64	0
2381.95	0
2382.25	0
2382.55	0
2382.85	0
2383.16	0
2383.46	0
2383.76	0
2384.06	0
2384.37	0
2384.67	0
2384.97	0
2385.28	0
2385.58	0
2385.88	0
2386.18	0
2386.49	0
2386.79	0
2387.09	0
2387.39	0
2387.69	0
2388	0
2388.3	0
2388.6	0
2388.9	0
2389.21	0
2389.51	0
2389.81	0
2390.11	0
2390.42	0
2390.72	0
2391.02	0
2391.32	0
2391.62	0
2391.93	0
2392.23	0
2392.53	0
2392.83	0
2393.13	0
2393.44	0
2393.74	0
2394.04	0
2394.34	0
2394.64	0
2394.95	0
2395.25	0
2395.55	0
2395.85	0
2396.15	0
2396.45	0
2396.76	0
2397.06	0
2397.36	0
2397.66	0
2397.96	0
2398.26	0
2398.57	0
2398.87	0
2399.17	0
2399.47	0
2399.77	0
2400.07	0
2400.37	0
2400.68	0
2400.98	0
2401.28	0
2401.58	0
2401.88	0
2402.18	0
2402.48	0
2402.79	0
2403.09	0
2403.39	0
2403.69	0
2403.99	0
2404.29	0
2404.59	0
2404.89	0
2405.19	0
2405.5	0
2405.8	0
2406.1	0
2406.4	0
2406.7	0
2407	0
2407.3	0
2407.6	0
2407.9	0
2408.2	0
2408.5	0
2408.8	0
2409.11	0
2409.41	0
2409.71	0
2410.01	0
2410.31	0
2410.61	0
2410.91	0
2411.21	0
2411.51	0
2411.81	0
2412.11	0
2412.41	0
2412.71	0
2413.01	0
2413.31	0
2413.61	0
2413.91	0
2414.21	0
2414.51	0
2414.81	0
2415.12	0
2415.42	0
2415.72	0
2416.02	0
2416.32	0
2416.62	0
2416.92	0
2417.22	0
2417.52	0
2417.82	0
2418.12	0
2418.42	0
2418.72	0
2419.02	0
2419.32	0
2419.62	0
2419.92	0
2420.22	0
2420.52	0
2420.82	0
2421.12	0
2421.42	0
2421.71	0
2422.01	0
2422.31	0
2422.61	0
2422.91	0
2423.21	0
2423.51	0
2423.81	0
2424.11	0
2424.41	0
2424.71	0
2425.01	0
2425.31	0
2425.61	0
2425.91	0
2426.21	0
2426.51	0
2426.81	0
2427.11	0
2427.41	0
2427.7	0
2428	0
2428.3	0
2428.6	0
2428.9	0
2429.2	0
2429.5	0
2429.8	0
2430.1	0
2430.4	0
2430.7	0
2430.99	0
2431.29	0
2431.59	0
2431.89	0
2432.19	0
2432.49	0
2432.79	0
2433.09	0
2433.39	0
2433.68	0
2433.98	0
2434.28	0
2434.58	0
2434.88	0
2435.18	0
2435.48	0
2435.78	0
2436.07	0
2436.37	0
2436.67	0
2436.97	0
2437.27	0
2437.57	0
2437.86	0
2438.16	0
2438.46	0
2438.76	0
2439.06	0
2439.36	0
2439.66	0
2439.95	0
2440.25	0
2440.55	0
2440.85	0
2441.15	0
2441.44	0
2441.74	0
2442.04	0
2442.34	0
2442.64	0
2442.93	0
2443.23	0
2443.53	0
2443.83	0
2444.13	0
2444.42	0
2444.72	0
2445.02	0
2445.32	0
2445.62	0
2445.91	0
2446.21	0
2446.51	0
2446.81	0
2447.1	0
2447.4	0
2447.7	0
2448	0
2448.3	0
2448.59	0
2448.89	0
2449.19	0
2449.49	0
2449.78	0
2450.08	0
2450.38	0
2450.68	0
2450.97	0
2451.27	0
2451.57	0
2451.87	0
2452.16	0
2452.46	0
2452.76	0
2453.05	0
2453.35	0
2453.65	0
2453.95	0
2454.24	0
2454.54	0
2454.84	0
2455.13	0
2455.43	0
2455.73	0
2456.03	0
2456.32	0
2456.62	0
2456.92	0
2457.21	0
2457.51	0
2457.81	0
2458.1	0
2458.4	0
2458.7	0
2458.99	0
2459.29	0
2459.59	0
2459.88	0
2460.18	0
2460.48	0
2460.77	0
2461.07	0
2461.37	0
2461.66	0
2461.96	0
2462.26	0
2462.55	0
2462.85	0
2463.15	0
2463.44	0
2463.74	0
2464.04	0
2464.33	0
2464.63	0
2464.92	0
2465.22	0
2465.52	0
2465.81	0
2466.11	0
2466.41	0
2466.7	0
2467	0
2467.29	0
2467.59	0
2467.89	0
2468.18	0
2468.48	0
2468.77	0
2469.07	0
2469.37	0
2469.66	0
2469.96	0
2470.25	0
2470.55	0
2470.84	0
2471.14	0
2471.44	0
2471.73	0
2472.03	0
2472.32	0
2472.62	0
2472.91	0
2473.21	0
2473.51	0
2473.8	0
2474.1	0
2474.39	0
2474.69	0
2474.98	0
2475.28	0
2475.57	0
2475.87	0
2476.17	0
2476.46	0
2476.76	0
2477.05	0
2477.35	0
2477.64	0
2477.94	0
2478.23	0
2478.53	0
2478.82	0
2479.12	0
2479.41	0
2479.71	0
2480	0
2480.3	0
2480.59	0
2480.89	0
2481.18	0
2481.48	0
2481.77	0
2482.07	0
2482.36	0
2482.66	0
2482.95	0
2483.25	0
2483.54	0
2483.84	0
2484.13	0
2484.43	0
2484.72	0
2485.02	0
2485.31	0
2485.6	0
2485.9	0
2486.19	0
2486.49	0
2486.78	0
2487.08	0
2487.37	0
2487.67	0
2487.96	0
2488.26	0
2488.55	0
2488.84	0
2489.14	0
2489.43	0
2489.73	0
2490.02	0
2490.32	0
2490.61	0
2490.9	0
2491.2	0
2491.49	0
2491.79	0
2492.08	0
2492.37	0
2492.67	0
2492.96	0
2493.26	0
2493.55	0
2493.84	0
2494.14	0
2494.43	0
2494.73	0
2495.02	0
2495.31	0
2495.61	0
2495.9	0
2496.2	0
2496.49	0
2496.78	0
2497.08	0
2497.37	0
2497.66	0
2497.96	0
2498.25	0
2498.54	0
2498.84	0
2499.13	0
2499.43	0
2499.72	0
2500.01	0
2500.31	0
2500.6	0
2500.89	0
2501.19	0
2501.48	0
2501.77	0
2502.07	0
2502.36	0
2502.65	0
2502.95	0
2503.24	0
2503.53	0
2503.82	0
2504.12	0
2504.41	0
2504.7	0
2505	0
2505.29	0
2505.58	0
2505.88	0
2506.17	0
2506.46	0
2506.76	0
2507.05	0
2507.34	0
2507.63	0
2507.93	0
2508.22	0
2508.51	0
2508.8	0
2509.1	0
2509.39	0
2509.68	0
2509.98	0
2510.27	0
2510.56	0
2510.85	0
2511.15	0
2511.44	0
2511.73	0
2512.02	0
2512.32	0
2512.61	0
2512.9	0
2513.19	0
2513.49	0
2513.78	0
2514.07	0
2514.36	0
2514.65	0
2514.95	0
2515.24	0
2515.53	0
2515.82	0
2516.12	0
2516.41	0
2516.7	0
2516.99	0
2517.28	0
2517.58	0
2517.87	0
2518.16	0
2518.45	0
2518.74	0
2519.04	0
2519.33	0
2519.62	0
2519.91	0
2520.2	0
2520.5	0
2520.79	0
2521.08	0
2521.37	0
2521.66	0
2521.95	0
2522.25	0
2522.54	0
2522.83	0
2523.12	0
2523.41	0
2523.7	0
2523.99	0
2524.29	0
2524.58	0
2524.87	0
2525.16	0
2525.45	0
2525.74	0
2526.03	0
2526.33	0
2526.62	0
2526.91	0
2527.2	0
2527.49	0
2527.78	0
2528.07	0
2528.36	0
2528.66	0
2528.95	0
2529.24	0
2529.53	0
2529.82	0
2530.11	0
2530.4	0
2530.69	0
2530.98	0
2531.27	0
2531.57	0
2531.86	0
2532.15	0
2532.44	0
2532.73	0
2533.02	0
2533.31	0
2533.6	0
2533.89	0
2534.18	0
2534.47	0
2534.76	0
2535.05	0
2535.35	0
2535.64	0
2535.93	0
2536.22	0
2536.51	0
2536.8	0
2537.09	0
2537.38	0
2537.67	0
2537.96	0
2538.25	0
2538.54	0
2538.83	0
2539.12	0
2539.41	0
2539.7	0
2539.99	0
2540.28	0
2540.57	0
2540.86	0
2541.15	0
2541.44	0
2541.73	0
2542.02	0
2542.31	0
2542.6	0
2542.89	0
2543.18	0
2543.47	0
2543.76	0
2544.05	0
2544.34	0
2544.63	0
2544.92	0
2545.21	0
2545.5	0
2545.79	0
2546.08	0
2546.37	0
2546.66	0
2546.95	0
2547.24	0
2547.53	0
2547.82	0
2548.11	0
2548.4	0
2548.69	0
2548.98	0
2549.27	0
2549.55	0
2549.84	0
2550.13	0
2550.42	0
2550.71	0
2551	0
2551.29	0
2551.58	0
2551.87	0
2552.16	0
2552.45	0
2552.74	0
2553.03	0
2553.31	0
2553.6	0
2553.89	0
2554.18	0
2554.47	0
2554.76	0
2555.05	0
2555.34	0
2555.63	0
2555.92	0
2556.2	0
2556.49	0
2556.78	0
2557.07	0
2557.36	0
2557.65	0
2557.94	0
2558.23	0
2558.51	0
2558.8	0
2559.09	0
2559.38	0
2559.67	0
2559.96	0
2560.25	0
2560.53	0
2560.82	0
2561.11	0
2561.4	0
2561.69	0
2561.98	0
2562.27	0
2562.55	0
2562.84	0
2563.13	0
2563.42	0
2563.71	0
2564	0
2564.28	0
2564.57	0
2564.86	0
2565.15	0
2565.44	0
2565.72	0
2566.01	0
2566.3	0
2566.59	0
2566.88	0
2567.16	0
2567.45	0
2567.74	0
2568.03	0
2568.32	0
2568.6	0
2568.89	0
2569.18	0
2569.47	0
2569.75	0

