Source: Spectrum Viewer

Chart: Pulse Spectrum

Series: 
Wavelength (nm)	S (a.u.)
1179.9	0
1180.29	0
1180.68	0
1181.06	0
1181.45	0
1181.83	0
1182.22	0
1182.6	0
1182.99	0
1183.38	0
1183.76	0
1184.15	0
1184.53	0
1184.92	0
1185.3	0
1185.69	0
1186.07	0
1186.46	0
1186.85	0
1187.23	0
1187.62	0
1188	0
1188.39	0
1188.77	0
1189.16	0
1189.54	0
1189.93	0
1190.31	0
1190.7	0
1191.08	0
1191.47	0
1191.85	0
1192.24	0
1192.62	0
1193.01	0
1193.39	0
1193.78	0
1194.16	0
1194.55	0
1194.93	0
1195.32	0
1195.7	0
1196.09	0
1196.47	0
1196.86	0
1197.24	0
1197.63	0
1198.01	0
1198.4	0
1198.78	0
1199.16	0
1199.55	0
1199.93	0
1200.32	0
1200.7	0
1201.09	0
1201.47	0
1201.86	0
1202.24	0
1202.63	0
1203.01	0
1203.39	0
1203.78	0
1204.16	0
1204.55	0
1204.93	0
1205.32	0
1205.7	0
1206.08	0
1206.47	0
1206.85	0
1207.24	0
1207.62	0
1208	0
1208.39	0
1208.77	0
1209.16	0
1209.54	0
1209.92	0
1210.31	0
1210.69	0
1211.08	0
1211.46	0
1211.84	0
1212.23	0
1212.61	0
1213	0
1213.38	0
1213.76	0
1214.15	0
1214.53	0
1214.91	0
1215.3	0
1215.68	0
1216.06	0
1216.45	0
1216.83	0
1217.22	0
1217.6	0
1217.98	0
1218.37	0
1218.75	0
1219.13	0
1219.52	0
1219.9	0
1220.28	0
1220.67	0
1221.05	0
1221.43	0
1221.82	0
1222.2	0
1222.58	0
1222.97	0
1223.35	0
1223.73	0
1224.11	0
1224.5	0
1224.88	0
1225.26	0
1225.65	0
1226.03	0
1226.41	0
1226.8	0
1227.18	0
1227.56	0
1227.94	0
1228.33	0
1228.71	0
1229.09	0
1229.47	0
1229.86	0
1230.24	0
1230.62	0
1231.01	0
1231.39	0
1231.77	0
1232.15	0
1232.54	0
1232.92	0
1233.3	0
1233.68	0
1234.07	0
1234.45	0
1234.83	0
1235.21	0
1235.6	0
1235.98	0
1236.36	0
1236.74	0
1237.12	0
1237.51	0
1237.89	0
1238.27	0
1238.65	0
1239.04	0
1239.42	0
1239.8	0
1240.18	0
1240.56	0
1240.95	0
1241.33	0
1241.71	0
1242.09	0
1242.47	0
1242.86	0
1243.24	0
1243.62	0
1244	0
1244.38	0
1244.77	0
1245.15	0
1245.53	0
1245.91	0
1246.29	0
1246.67	0
1247.06	0
1247.44	0
1247.82	0
1248.2	0
1248.58	0
1248.96	0
1249.34	0
1249.73	0
1250.11	0
1250.49	0
1250.87	0
1251.25	0
1251.63	0
1252.01	0
1252.4	0
1252.78	0
1253.16	0
1253.54	0
1253.92	0
1254.3	0
1254.68	0
1255.06	0
1255.45	0
1255.83	0
1256.21	0
1256.59	0
1256.97	0
1257.35	0
1257.73	0
1258.11	0
1258.49	0
1258.87	0
1259.26	0
1259.64	0
1260.02	0
1260.4	0
1260.78	0
1261.16	0
1261.54	0
1261.92	0
1262.3	0
1262.68	0
1263.06	0
1263.44	0
1263.82	0
1264.21	0
1264.59	0
1264.97	0
1265.35	0
1265.73	0
1266.11	0
1266.49	0
1266.87	0
1267.25	0
1267.63	0
1268.01	0
1268.39	0
1268.77	0
1269.15	0
1269.53	0
1269.91	0
1270.29	0
1270.67	0
1271.05	0
1271.43	0
1271.81	0
1272.19	0
1272.57	0
1272.95	0
1273.33	0
1273.71	0
1274.09	0
1274.47	0
1274.85	0
1275.23	0
1275.61	0
1275.99	0
1276.37	0
1276.75	0
1277.13	0
1277.51	0
1277.89	0
1278.27	0
1278.65	0
1279.03	0
1279.41	0
1279.79	0
1280.17	0
1280.55	0
1280.93	0
1281.31	0
1281.69	0
1282.07	0
1282.45	0
1282.82	0
1283.2	0
1283.58	0
1283.96	0
1284.34	0
1284.72	0
1285.1	0
1285.48	0
1285.86	0
1286.24	0
1286.62	0
1287	0
1287.38	0
1287.75	0
1288.13	0
1288.51	0
1288.89	0
1289.27	0
1289.65	0
1290.03	0
1290.41	0
1290.79	0
1291.17	0
1291.54	0
1291.92	0
1292.3	0
1292.68	0
1293.06	0
1293.44	0
1293.82	0
1294.2	0
1294.57	0
1294.95	0
1295.33	0
1295.71	0
1296.09	0
1296.47	0
1296.85	0
1297.22	0
1297.6	0
1297.98	0
1298.36	0
1298.74	0
1299.12	0
1299.5	0
1299.87	0
1300.25	0
1300.63	0
1301.01	0
1301.39	0
1301.77	0
1302.14	0
1302.52	0
1302.9	0
1303.28	0
1303.66	0
1304.03	0
1304.41	0
1304.79	0
1305.17	0
1305.55	0
1305.92	0
1306.3	0
1306.68	0
1307.06	0
1307.44	0
1307.81	0
1308.19	0
1308.57	0
1308.95	0
1309.32	0
1309.7	0
1310.08	0
1310.46	0
1310.84	0
1311.21	0
1311.59	0
1311.97	0
1312.35	0
1312.72	0
1313.1	0
1313.48	0
1313.86	0
1314.23	0
1314.61	0
1314.99	0
1315.37	0
1315.74	0
1316.12	0
1316.5	0
1316.87	0
1317.25	0
1317.63	0
1318.01	0
1318.38	0
1318.76	0
1319.14	0
1319.52	0
1319.89	0
1320.27	0
1320.65	0
1321.02	0
1321.4	0
1321.78	0
1322.15	0
1322.53	0
1322.91	0
1323.29	0
1323.66	0
1324.04	0
1324.42	0
1324.79	0
1325.17	0
1325.55	0
1325.92	0
1326.3	0
1326.68	0
1327.05	0
1327.43	0
1327.81	0
1328.18	0
1328.56	0
1328.94	0
1329.31	0
1329.69	0
1330.06	0
1330.44	0
1330.82	0
1331.19	0
1331.57	0
1331.95	0
1332.32	0
1332.7	0
1333.08	0
1333.45	0
1333.83	0
1334.2	0
1334.58	0
1334.96	0
1335.33	0
1335.71	0
1336.08	0
1336.46	0
1336.84	0
1337.21	0
1337.59	0
1337.96	0
1338.34	0
1338.72	0
1339.09	0
1339.47	0
1339.84	0
1340.22	0
1340.6	0
1340.97	0
1341.35	0
1341.72	0
1342.1	0
1342.47	0
1342.85	0
1343.23	0
1343.6	0
1343.98	0
1344.35	0
1344.73	0
1345.1	0
1345.48	0
1345.85	0
1346.23	0
1346.61	0
1346.98	0
1347.36	0
1347.73	0
1348.11	0
1348.48	0
1348.86	0
1349.23	0
1349.61	0
1349.98	0
1350.36	0
1350.73	0
1351.11	0
1351.48	0
1351.86	0
1352.23	0
1352.61	0
1352.98	0
1353.36	0
1353.73	0
1354.11	0
1354.48	0
1354.86	0
1355.23	0
1355.61	0
1355.98	0
1356.36	0
1356.73	0
1357.11	0
1357.48	0
1357.86	0
1358.23	0
1358.61	0
1358.98	0
1359.35	0
1359.73	0
1360.1	0
1360.48	0
1360.85	0
1361.23	0
1361.6	0
1361.98	0
1362.35	0
1362.72	0
1363.1	0
1363.47	0
1363.85	0
1364.22	0
1364.6	0
1364.97	0
1365.34	0
1365.72	0
1366.09	0
1366.47	0
1366.84	0
1367.22	0
1367.59	0
1367.96	0
1368.34	0
1368.71	0
1369.09	0
1369.46	-1
1369.83	-1
1370.21	-0.96
1370.58	-0.96
1370.96	-0.96
1371.33	0.04
1371.7	0.04
1372.08	0.08
1372.45	0.08
1372.82	0.24
1373.2	0.24
1373.57	0.28
1373.95	0.2
1374.32	0.2
1374.69	0.04
1375.07	0.04
1375.44	0
1375.81	0
1376.19	0
1376.56	0
1376.93	0
1377.31	0
1377.68	0.04
1378.05	0.04
1378.43	0.08
1378.8	0.48
1379.17	0.48
1379.55	0.44
1379.92	0.44
1380.29	0.44
1380.67	0.04
1381.04	0.24
1381.41	0.24
1381.79	0.24
1382.16	0.44
1382.53	0.44
1382.91	-0.76
1383.28	-0.76
1383.65	-0.68
1384.03	-0.92
1384.4	-0.92
1384.77	0.32
1385.14	0.32
1385.52	0.24
1385.89	0.24
1386.26	0.24
1386.64	0
1387.01	0
1387.38	0.16
1387.75	0.16
1388.13	0.16
1388.5	0.16
1388.87	0.16
1389.25	0
1389.62	-0.2
1389.99	-0.4
1390.36	-0.36
1390.74	-0.36
1391.11	-0.2
1391.48	1.44334e-17
1391.85	0.2
1392.23	0.16
1392.6	0.24
1392.97	0.08
1393.34	0.16
1393.72	0.16
1394.09	0.16
1394.46	0.08
1394.83	0.08
1395.21	0
1395.58	0
1395.95	0.32
1396.32	0.4
1396.69	0.4
1397.07	0.4
1397.44	0.4
1397.81	0.08
1398.18	0
1398.55	0
1398.93	0
1399.3	0
1399.67	0
1400.04	0.08
1400.41	0.12
1400.79	0.12
1401.16	0.12
1401.53	0.12
1401.9	0.24
1402.27	0.24
1402.65	0.24
1403.02	0.24
1403.39	0.24
1403.76	-0.36
1404.13	-0.4
1404.51	-0.4
1404.88	-0.4
1405.25	-0.28
1405.62	0.2
1405.99	0.2
1406.36	0.2
1406.74	0.2
1407.11	0.08
1407.48	0
1407.85	-1.16
1408.22	-1.16
1408.59	-1.12
1408.96	-1.12
1409.34	-0.92
1409.71	0.24
1410.08	0.24
1410.45	0.2
1410.82	0.2
1411.19	0.12
1411.56	0.12
1411.93	0.12
1412.31	0.12
1412.68	0.12
1413.05	0.08
1413.42	0.08
1413.79	0.08
1414.16	0.16
1414.53	0.16
1414.9	-0.12
1415.27	-0.12
1415.65	-0.12
1416.02	-0.2
1416.39	-0.2
1416.76	0
1417.13	0
1417.5	0
1417.87	0.24
1418.24	0.24
1418.61	0.24
1418.98	0.24
1419.35	0.24
1419.73	0
1420.1	0
1420.47	0
1420.84	0
1421.21	0
1421.58	0.2
1421.95	0.24
1422.32	0.24
1422.69	0.52
1423.06	0.52
1423.43	0.32
1423.8	0.64
1424.17	0.68
1424.54	0.4
1424.91	0.4
1425.28	0.4
1425.65	0.12
1426.02	0.08
1426.39	0.08
1426.76	-0.52
1427.14	-0.52
1427.51	-0.6
1427.88	-0.6
1428.25	-0.6
1428.62	0
1428.99	0
1429.36	0
1429.73	0
1430.1	0
1430.47	0
1430.84	0.04
1431.21	0.04
1431.58	0.04
1431.95	0.04
1432.32	-0.16
1432.69	-0.2
1433.06	-0.2
1433.43	-0.2
1433.8	-0.2
1434.17	0
1434.54	0.2
1434.91	0.2
1435.28	0.2
1435.64	0.32
1436.01	-0.28
1436.38	-0.48
1436.75	-0.4
1437.12	-0.28
1437.49	-0.36
1437.86	0.24
1438.23	0.24
1438.6	0.28
1438.97	0.16
1439.34	0.12
1439.71	0.2
1440.08	0.2
1440.45	0.08
1440.82	-0.36
1441.19	-0.36
1441.56	-0.44
1441.93	-0.44
1442.3	-0.36
1442.67	-1.52
1443.03	-1.52
1443.4	-1.52
1443.77	-1.52
1444.14	-1.6
1444.51	0.04
1444.88	0.04
1445.25	0.04
1445.62	0.04
1445.99	0.04
1446.36	0
1446.73	0
1447.09	0
1447.46	0
1447.83	0
1448.2	0
1448.57	0.04
1448.94	0.08
1449.31	0.08
1449.68	0.08
1450.05	0.28
1450.41	0.24
1450.78	-0.2
1451.15	-0.2
1451.52	-0.2
1451.89	-0.4
1452.26	-0.32
1452.63	0.08
1453	0.08
1453.36	0.08
1453.73	0.08
1454.1	0
1454.47	0
1454.84	0
1455.21	0.08
1455.57	-0.12
1455.94	-0.12
1456.31	-0.12
1456.68	0.08
1457.05	0
1457.42	0.44
1457.78	0.44
1458.15	0.44
1458.52	0.24
1458.89	0.24
1459.26	0
1459.63	0
1459.99	0
1460.36	0.04
1460.73	0.04
1461.1	0.04
1461.47	0.08
1461.83	0.16
1462.2	0.28
1462.57	0.28
1462.94	0.36
1463.31	0.32
1463.67	0.44
1464.04	0.08
1464.41	0.08
1464.78	-0.6
1465.15	-0.6
1465.51	-0.8
1465.88	-0.48
1466.25	-0.48
1466.62	0.12
1466.98	0.28
1467.35	0.56
1467.72	0.6
1468.09	0.6
1468.46	0.8
1468.82	0.64
1469.19	0.36
1469.56	0.2
1469.93	0.2
1470.29	0
1470.66	0.16
1471.03	0.16
1471.4	0.16
1471.76	0.16
1472.13	0.16
1472.5	0
1472.86	0.24
1473.23	0.24
1473.6	0.24
1473.97	0.32
1474.33	0.32
1474.7	0.08
1475.07	0.08
1475.44	0.28
1475.8	0.08
1476.17	0.4
1476.54	0.48
1476.9	0.48
1477.27	0.28
1477.64	0.4
1478	0.08
1478.37	0
1478.74	0
1479.11	0
1479.47	0.2
1479.84	0.2
1480.21	0.2
1480.57	0.28
1480.94	0.28
1481.31	0.08
1481.67	0.08
1482.04	0.08
1482.41	0
1482.77	0.08
1483.14	0.08
1483.51	0.08
1483.87	0.08
1484.24	0.08
1484.61	0
1484.97	0
1485.34	0.16
1485.71	-0.84
1486.07	-0.84
1486.44	-0.84
1486.81	-0.84
1487.17	-1
1487.54	0
1487.9	0.12
1488.27	0.12
1488.64	-0.08
1489	-6.66107e-18
1489.37	-6.66107e-18
1489.74	-0.12
1490.1	-0.12
1490.47	0.28
1490.83	0.36
1491.2	0.36
1491.57	0.36
1491.93	0.36
1492.3	0.16
1492.66	0
1493.03	0
1493.4	0
1493.76	0
1494.13	0
1494.49	0.12
1494.86	0.12
1495.23	0.12
1495.59	0.12
1495.96	-1.16
1496.32	-1.28
1496.69	-1.28
1497.06	-1.12
1497.42	-1.92
1497.79	-0.64
1498.15	-0.6
1498.52	-0.6
1498.88	-0.76
1499.25	0.04
1499.62	-0.16
1499.98	-0.2
1500.35	-0.2
1500.71	-0.2
1501.08	-0.2
1501.44	0
1501.81	0
1502.17	0
1502.54	0
1502.9	0
1503.27	0
1503.64	0
1504	0
1504.37	0
1504.73	0.12
1505.1	0.12
1505.46	0.12
1505.83	0.12
1506.19	0.12
1506.56	0
1506.92	0.08
1507.29	0.24
1507.65	0.24
1508.02	0.24
1508.38	0.28
1508.75	0.28
1509.11	0.12
1509.48	0.12
1509.84	0.12
1510.21	0.08
1510.57	0
1510.94	0
1511.3	0
1511.67	0
1512.03	0
1512.4	0
1512.76	0
1513.13	-1
1513.49	-1.2
1513.85	-1.2
1514.22	-1.2
1514.58	-1.2
1514.95	-0.2
1515.31	0
1515.68	0.04
1516.04	0.04
1516.41	0.04
1516.77	0.04
1517.14	0.04
1517.5	0
1517.86	0
1518.23	0.08
1518.59	0.12
1518.96	0.12
1519.32	0.12
1519.69	0.28
1520.05	0.44
1520.41	0.4
1520.78	0.4
1521.14	0.4
1521.51	0.24
1521.87	0
1522.24	0.32
1522.6	0.32
1522.96	0.32
1523.33	0.32
1523.69	0.32
1524.06	0
1524.42	0
1524.78	0
1525.15	0.2
1525.51	0.2
1525.88	0.2
1526.24	0.2
1526.6	0.2
1526.97	0.16
1527.33	0.16
1527.69	0.16
1528.06	0.16
1528.42	0.16
1528.79	0
1529.15	-0.8
1529.51	-0.8
1529.88	-0.8
1530.24	-0.8
1530.6	-0.8
1530.97	0
1531.33	0
1531.69	0
1532.06	0
1532.42	0
1532.78	0.04
1533.15	0.04
1533.51	0.04
1533.87	0.04
1534.24	0.16
1534.6	0.28
1534.96	0.32
1535.33	0.32
1535.69	0.36
1536.05	0.24
1536.42	0.08
1536.78	0.04
1537.14	0.04
1537.51	0.04
1537.87	0.04
1538.23	0.2
1538.6	0.32
1538.96	0.36
1539.32	0.44
1539.68	0.56
1540.05	0.44
1540.41	0.32
1540.77	0.28
1541.14	0.24
1541.5	0.4
1541.86	0.36
1542.23	0.52
1542.59	0.64
1542.95	0.56
1543.31	0.4
1543.68	0.4
1544.04	0.28
1544.4	0.16
1544.76	0.36
1545.13	0.36
1545.49	0.36
1545.85	0.32
1546.21	0.52
1546.58	0.32
1546.94	0.44
1547.3	0.48
1547.66	0.48
1548.03	0.28
1548.39	0.4
1548.75	0.2
1549.11	0.16
1549.48	0.16
1549.84	0.16
1550.2	0.08
1550.56	0.04
1550.93	0.08
1551.29	0.08
1551.65	0.16
1552.01	0.16
1552.37	0.2
1552.74	0.16
1553.1	0.16
1553.46	0.08
1553.82	0.16
1554.18	0.12
1554.55	0.12
1554.91	0.24
1555.27	0.24
1555.63	0.24
1555.99	0.24
1556.36	0.24
1556.72	-1.48
1557.08	-1.48
1557.44	-1.6
1557.8	-1.6
1558.17	-1.6
1558.53	0
1558.89	0.28
1559.25	0.28
1559.61	0.28
1559.97	0.32
1560.34	0.52
1560.7	0.24
1561.06	0.24
1561.42	0.36
1561.78	0.32
1562.14	0.2
1562.5	0.2
1562.87	0.2
1563.23	0.08
1563.59	-0.32
1563.95	-0.36
1564.31	-0.36
1564.67	-0.36
1565.03	-0.24
1565.4	0.16
1565.76	0.12
1566.12	0.24
1566.48	0.6
1566.84	0.56
1567.2	0.56
1567.56	0.36
1567.92	0.24
1568.29	-0.12
1568.65	-0.12
1569.01	-0.12
1569.37	-0.24
1569.73	-0.24
1570.09	-0.2
1570.45	-0.28
1570.81	-0.28
1571.17	0.04
1571.53	0.04
1571.89	0
1572.26	0
1572.62	0
1572.98	0
1573.34	0
1573.7	0.04
1574.06	0.04
1574.42	0.04
1574.78	-0.16
1575.14	1.44334e-17
1575.5	0.04
1575.86	-0.76
1576.22	-0.52
1576.58	-0.32
1576.94	-0.48
1577.3	-0.48
1577.67	0.32
1578.03	0.08
1578.39	0.08
1578.75	0.08
1579.11	0
1579.47	0.04
1579.83	0.04
1580.19	0.04
1580.55	0.04
1580.91	0.2
1581.27	0.24
1581.63	0.36
1581.99	0.6
1582.35	0.6
1582.71	0.44
1583.07	0.6
1583.43	0.56
1583.79	0.32
1584.15	0.44
1584.51	0.44
1584.87	0.4
1585.23	0.36
1585.59	0.64
1585.95	0.52
1586.31	0.6
1586.67	0.4
1587.03	0.6
1587.39	0.64
1587.75	0.64
1588.11	0.56
1588.47	0.56
1588.83	0.44
1589.19	0.32
1589.55	0.32
1589.91	0.52
1590.27	0.52
1590.63	0.56
1590.99	0.44
1591.35	0.44
1591.71	0.28
1592.07	0.4
1592.42	0.32
1592.78	0.4
1593.14	0.6
1593.5	0.56
1593.86	0.48
1594.22	0.44
1594.58	0.28
1594.94	0.12
1595.3	0.12
1595.66	0.2
1596.02	0.16
1596.38	0.16
1596.74	0.24
1597.1	0.24
1597.46	0.12
1597.81	0.12
1598.17	0.16
1598.53	0.04
1598.89	0.12
1599.25	0.12
1599.61	0.2
1599.97	0.28
1600.33	0.4
1600.69	0.56
1601.05	0.56
1601.4	0.76
1601.76	0.4
1602.12	0.36
1602.48	0.16
1602.84	0.16
1603.2	-0.08
1603.56	0.16
1603.92	0.12
1604.28	0.16
1604.63	0.16
1604.99	0.4
1605.35	0.48
1605.71	0.72
1606.07	0.64
1606.43	0.72
1606.79	0.52
1607.14	0.52
1607.5	0.28
1607.86	0.28
1608.22	0.2
1608.58	0.12
1608.94	0.04
1609.29	0.08
1609.65	0.04
1610.01	0.2
1610.37	0.24
1610.73	0.28
1611.09	0.32
1611.44	0.36
1611.8	0.2
1612.16	0.28
1612.52	0.4
1612.88	0.32
1613.24	0.52
1613.59	0.52
1613.95	0.4
1614.31	0.48
1614.67	0.64
1615.03	0.44
1615.38	0.52
1615.74	0.56
1616.1	0.32
1616.46	0.12
1616.82	0.12
1617.17	0.04
1617.53	0.04
1617.89	0.16
1618.25	0.16
1618.6	0.16
1618.96	0.36
1619.32	0.44
1619.68	0.32
1620.04	0.32
1620.39	0.28
1620.75	0.08
1621.11	0.04
1621.47	0.28
1621.82	0.36
1622.18	0.52
1622.54	0.52
1622.9	0.44
1623.25	-0.8
1623.61	-0.72
1623.97	-0.72
1624.33	-0.72
1624.68	-0.92
1625.04	0.16
1625.4	-6.66107e-18
1625.75	-0.72
1626.11	-0.52
1626.47	-0.32
1626.83	-0.24
1627.18	-0.08
1627.54	0.64
1627.9	0.56
1628.26	0.64
1628.61	0.52
1628.97	0.36
1629.33	0.28
1629.68	0.32
1630.04	0.24
1630.4	-0.4
1630.75	-0.24
1631.11	-0.28
1631.47	-0.52
1631.83	-0.52
1632.18	0.12
1632.54	-3.33053e-18
1632.9	0.04
1633.25	0.12
1633.61	0.48
1633.97	0.44
1634.32	0.4
1634.68	0.36
1635.04	0.36
1635.39	0.08
1635.75	0.08
1636.11	0.28
1636.46	0.28
1636.82	0.48
1637.18	0.68
1637.53	0.84
1637.89	0.64
1638.25	0.64
1638.6	0.44
1638.96	0.4
1639.31	0.24
1639.67	0.28
1640.03	0.28
1640.38	0.32
1640.74	0.08
1641.1	0.12
1641.45	0.08
1641.81	0.08
1642.16	0.04
1642.52	0.16
1642.88	0.12
1643.23	-0.48
1643.59	-0.48
1643.95	-0.48
1644.3	-0.52
1644.66	-0.44
1645.01	0.16
1645.37	0.16
1645.73	0.2
1646.08	0.12
1646.44	0.2
1646.79	-0.4
1647.15	-0.24
1647.51	-0.28
1647.86	-0.28
1648.22	-0.44
1648.57	-0.52
1648.93	-0.68
1649.28	-0.68
1649.64	-0.64
1650	-0.6
1650.35	0.08
1650.71	0.08
1651.06	0.08
1651.42	0.12
1651.77	-0.12
1652.13	-0.12
1652.48	-0.12
1652.84	6.66107e-18
1653.2	-0.08
1653.55	0.12
1653.91	0.12
1654.26	0.4
1654.62	0.48
1654.97	0.64
1655.33	0.84
1655.68	0.84
1656.04	0.72
1656.39	0.84
1656.75	0.76
1657.1	0.56
1657.46	0.68
1657.81	0.52
1658.17	0.2
1658.52	0.16
1658.88	0.16
1659.23	0.04
1659.59	0.04
1659.94	0.16
1660.3	0.12
1660.65	0.16
1661.01	0.16
1661.36	0.16
1661.72	0.04
1662.07	0.04
1662.43	0.08
1662.78	0.2
1663.14	0.2
1663.49	0.2
1663.85	0.24
1664.2	0.8
1664.56	0.84
1664.91	-0.64
1665.27	-0.52
1665.62	-0.28
1665.98	-0.64
1666.33	-0.56
1666.69	1.04
1667.04	1.08
1667.39	0.96
1667.75	0.92
1668.1	1.44
1668.46	1.36
1668.81	1.2
1669.17	1.36
1669.52	1.16
1669.88	0.4
1670.23	0.6
1670.58	0.76
1670.94	0.64
1671.29	0.8
1671.65	1.68
1672	1.44
1672.36	1.28
1672.71	1.16
1673.06	0.96
1673.42	-0.12
1673.77	0.24
1674.13	0.32
1674.48	0.48
1674.83	0.76
1675.19	1
1675.54	0.76
1675.9	0.96
1676.25	1
1676.6	0.88
1676.96	0.84
1677.31	0.76
1677.67	1.12
1678.02	1.16
1678.37	1.2
1678.73	1.8
1679.08	2.8
1679.43	2.52
1679.79	3.4
1680.14	3.4
1680.5	2.68
1680.85	2.08
1681.2	2.52
1681.56	2.28
1681.91	2.2
1682.26	2.72
1682.62	2.68
1682.97	1.92
1683.32	1.72
1683.68	2.12
1684.03	2.64
1684.38	2.52
1684.74	2.72
1685.09	2.56
1685.44	2.24
1685.8	1.8
1686.15	2.08
1686.5	2
1686.86	2.48
1687.21	3.24
1687.56	3.76
1687.92	3.92
1688.27	4
1688.62	3.48
1688.98	2.92
1689.33	2.76
1689.68	2.16
1690.03	2.32
1690.39	1.8
1690.74	2.64
1691.09	2
1691.45	1.64
1691.8	1.92
1692.15	2.28
1692.5	1.64
1692.86	1.92
1693.21	2.56
1693.56	2.4
1693.92	2.44
1694.27	1.24
1694.62	1.32
1694.97	1.28
1695.33	1.2
1695.68	1.44
1696.03	2.84
1696.38	2.36
1696.74	2.24
1697.09	1.68
1697.44	1.32
1697.79	1.04
1698.15	2.04
1698.5	1.96
1698.85	2.2
1699.2	1.48
1699.56	1
1699.91	0.32
1700.26	1.08
1700.61	1.12
1700.97	1.68
1701.32	1.96
1701.67	2.24
1702.02	2.36
1702.37	2.8
1702.73	3.24
1703.08	3.32
1703.43	3.2
1703.78	2.64
1704.13	2.36
1704.49	2.68
1704.84	2.84
1705.19	2.72
1705.54	3.16
1705.89	3.92
1706.25	4
1706.6	3.92
1706.95	3.68
1707.3	3.28
1707.65	2.64
1708.01	2.6
1708.36	2.8
1708.71	2.68
1709.06	2.32
1709.41	1.88
1709.76	1.12
1710.12	1.16
1710.47	1.36
1710.82	1.56
1711.17	2
1711.52	2.28
1711.87	2.48
1712.23	2.48
1712.58	2.4
1712.93	2.24
1713.28	2.28
1713.63	2
1713.98	2.64
1714.33	2.88
1714.69	3.12
1715.04	3.08
1715.39	3.2
1715.74	2.48
1716.09	2.2
1716.44	1.96
1716.79	1.68
1717.14	1.52
1717.5	1.92
1717.85	2.64
1718.2	2.8
1718.55	3.12
1718.9	3.2
1719.25	3
1719.6	2.92
1719.95	3.24
1720.3	3.84
1720.65	4.12
1721.01	4.6
1721.36	4.72
1721.71	4.2
1722.06	3.64
1722.41	3.52
1722.76	3.28
1723.11	3.24
1723.46	5.04
1723.81	4.64
1724.16	5.28
1724.51	5.68
1724.86	5.28
1725.21	4.24
1725.56	5.04
1725.92	3.88
1726.27	3.72
1726.62	3.92
1726.97	3.64
1727.32	2.48
1727.67	3.24
1728.02	3.24
1728.37	4
1728.72	3.48
1729.07	4.08
1729.42	3.28
1729.77	3
1730.12	3.36
1730.47	4.04
1730.82	4.68
1731.17	5.56
1731.52	5.84
1731.87	5.28
1732.22	4.72
1732.57	5.36
1732.92	5.28
1733.27	4.88
1733.62	4.64
1733.97	5.36
1734.32	4.72
1734.67	4.68
1735.02	3.96
1735.37	3.76
1735.72	3.36
1736.07	2.56
1736.42	2.28
1736.77	3.28
1737.12	3.72
1737.47	3.92
1737.82	4.16
1738.17	3.6
1738.52	3.36
1738.87	3.08
1739.22	3.8
1739.57	3.76
1739.92	4.4
1740.27	4.44
1740.62	4.6
1740.97	4.2
1741.32	3.92
1741.67	3.64
1742.02	3.4
1742.37	2.68
1742.72	1.92
1743.06	2.56
1743.41	2.08
1743.76	1.96
1744.11	0.96
1744.46	1.52
1744.81	1.52
1745.16	1.72
1745.51	1.64
1745.86	2.84
1746.21	2
1746.56	1.4
1746.91	1.68
1747.26	2.28
1747.6	1.92
1747.95	1.92
1748.3	2
1748.65	1.44
1749	0.92
1749.35	0.76
1749.7	1.64
1750.05	1.4
1750.4	1.8
1750.75	1.88
1751.09	1.84
1751.44	1.32
1751.79	1.28
1752.14	1.4
1752.49	1.28
1752.84	1.16
1753.19	0.84
1753.54	0.88
1753.88	0.52
1754.23	0.48
1754.58	0.84
1754.93	0.72
1755.28	0.8
1755.63	0.72
1755.98	0.72
1756.32	1.12
1756.67	1.08
1757.02	1.04
1757.37	1.56
1757.72	1.52
1758.07	0.8
1758.42	1.44
1758.76	1.64
1759.11	0.64
1759.46	0.6
1759.81	0.64
1760.16	0.44
1760.5	0.16
1760.85	0.36
1761.2	0.44
1761.55	0.52
1761.9	0.08
1762.25	0.08
1762.59	1.08
1762.94	1.4
1763.29	1.24
1763.64	1.24
1763.99	1.4
1764.33	1.2
1764.68	0.8
1765.03	1.04
1765.38	2.28
1765.73	2.8
1766.07	2.2
1766.42	3.32
1766.77	3.44
1767.12	2.24
1767.46	1.6
1767.81	2.08
1768.16	1.6
1768.51	2.4
1768.85	3.12
1769.2	4.56
1769.55	5.76
1769.9	5.96
1770.25	5.8
1770.59	7.36
1770.94	6.08
1771.29	5.84
1771.64	5.88
1771.98	6.16
1772.33	6.2
1772.68	7.44
1773.02	7.36
1773.37	11.08
1773.72	11.4
1774.07	11.6
1774.41	14.2
1774.76	14.92
1775.11	13.6
1775.46	15.28
1775.8	14.32
1776.15	13.68
1776.5	15.4
1776.84	14.76
1777.19	15.76
1777.54	19.88
1777.89	22.16
1778.23	23.96
1778.58	26.28
1778.93	30
1779.27	31.64
1779.62	31.32
1779.97	33.24
1780.31	36.32
1780.66	34.8
1781.01	32.84
1781.35	35.12
1781.7	37.24
1782.05	37.68
1782.39	37.88
1782.74	40.72
1783.09	44.04
1783.43	43.44
1783.78	44.72
1784.13	50.56
1784.47	51.56
1784.82	50.16
1785.17	50.6
1785.51	50.64
1785.86	53.2
1786.21	58.92
1786.55	63.52
1786.9	73.48
1787.25	78.56
1787.59	78.64
1787.94	79.48
1788.29	77.88
1788.63	76.28
1788.98	77
1789.32	77.56
1789.67	78.24
1790.02	75.56
1790.36	75.08
1790.71	84.48
1791.06	89.48
1791.4	95.48
1791.75	108.52
1792.09	122.92
1792.44	132.2
1792.79	133.36
1793.13	140.16
1793.48	148.96
1793.82	139.88
1794.17	131.96
1794.52	132.72
1794.86	123.88
1795.21	117.76
1795.55	107.04
1795.9	91.72
1796.24	106.4
1796.59	126.08
1796.94	141.36
1797.28	164.52
1797.63	183.4
1797.97	174.56
1798.32	160.36
1798.66	159.88
1799.01	162.92
1799.36	159.52
1799.7	166.72
1800.05	175.76
1800.39	160.24
1800.74	167.04
1801.08	192.12
1801.43	206.56
1801.77	209.64
1802.12	219.44
1802.46	224.96
1802.81	213.8
1803.15	197.72
1803.5	194.76
1803.85	183.72
1804.19	161.44
1804.54	160.16
1804.88	159.24
1805.23	154.92
1805.57	179.2
1805.92	206.88
1806.26	215.96
1806.61	215.88
1806.95	237.84
1807.3	261.08
1807.64	269.64
1807.99	276.96
1808.33	284.12
1808.68	262.64
1809.02	263
1809.37	274.72
1809.71	279.96
1810.06	294.88
1810.4	301.88
1810.75	268.72
1811.09	265.72
1811.43	286.8
1811.78	319.28
1812.12	367.52
1812.47	394.12
1812.81	386.96
1813.16	380.08
1813.5	353.04
1813.85	325.6
1814.19	319.76
1814.54	297.84
1814.88	270.92
1815.23	251.8
1815.57	215.36
1815.91	174.88
1816.26	180.48
1816.6	206.8
1816.95	226.12
1817.29	261.72
1817.64	310.8
1817.98	353.4
1818.32	373.72
1818.67	386.48
1819.01	404.52
1819.36	412.92
1819.7	372.88
1820.05	344.64
1820.39	353.76
1820.73	335.8
1821.08	321.8
1821.42	333.44
1821.77	314.84
1822.11	268.64
1822.45	256.68
1822.8	243.6
1823.14	211.88
1823.49	220.68
1823.83	279.28
1824.17	320.8
1824.52	355.08
1824.86	397.52
1825.2	401.76
1825.55	367.64
1825.89	321.96
1826.24	289.6
1826.58	312.56
1826.92	336.2
1827.27	338.28
1827.61	373.44
1827.95	389.4
1828.3	342.84
1828.64	310.72
1828.98	285.88
1829.33	246.48
1829.67	278.8
1830.02	311.96
1830.36	323.48
1830.7	382.08
1831.05	428.84
1831.39	395.24
1831.73	383.28
1832.08	387.32
1832.42	344
1832.76	323.92
1833.1	314.56
1833.45	288.6
1833.79	272.24
1834.13	266.4
1834.48	252.92
1834.82	257.76
1835.16	268.72
1835.51	261.68
1835.85	263.4
1836.19	255.32
1836.54	225.52
1836.88	206.8
1837.22	184.92
1837.56	159.92
1837.91	161.52
1838.25	189.72
1838.59	210.08
1838.94	236.4
1839.28	255.2
1839.62	245.88
1839.96	232.68
1840.31	207.6
1840.65	177.92
1840.99	172.48
1841.34	223.92
1841.68	245.8
1842.02	269.56
1842.36	307.76
1842.71	304.92
1843.05	241.76
1843.39	229.24
1843.73	243.72
1844.08	252.96
1844.42	297.04
1844.76	339.88
1845.1	332.76
1845.45	303.32
1845.79	284.92
1846.13	257.68
1846.47	240.4
1846.81	231.24
1847.16	224.12
1847.5	232.96
1847.84	251
1848.18	258.84
1848.53	275.2
1848.87	291.88
1849.21	276.2
1849.55	251.24
1849.89	237.68
1850.24	219.28
1850.58	205.52
1850.92	198.6
1851.26	187.4
1851.6	185.24
1851.95	182.64
1852.29	173.56
1852.63	173
1852.97	168.44
1853.31	150.56
1853.66	139.08
1854	129.12
1854.34	121.8
1854.68	140.68
1855.02	153.64
1855.36	155.6
1855.71	165.8
1856.05	163.44
1856.39	136.76
1856.73	120.72
1857.07	115.28
1857.41	106.44
1857.76	104.88
1858.1	102.84
1858.44	95.28
1858.78	96.88
1859.12	89.52
1859.46	76.72
1859.8	71.04
1860.15	67.88
1860.49	69.88
1860.83	87.2
1861.17	100.72
1861.51	99.6
1861.85	105.04
1862.19	89
1862.53	72.56
1862.88	67.84
1863.22	67.48
1863.56	60.36
1863.9	65
1864.24	67.12
1864.58	57.72
1864.92	55.52
1865.26	54.76
1865.6	49.44
1865.94	41.16
1866.29	35.52
1866.63	27.92
1866.97	25.56
1867.31	21.48
1867.65	17.12
1867.99	18.56
1868.33	18.6
1868.67	15.6
1869.01	17.04
1869.35	27.68
1869.69	38.68
1870.03	47.76
1870.37	56.08
1870.72	60.2
1871.06	50.44
1871.4	35.92
1871.74	25.56
1872.08	19.36
1872.42	24.72
1872.76	32.2
1873.1	35.96
1873.44	37.04
1873.78	33.64
1874.12	21.36
1874.46	16.6
1874.8	20.64
1875.14	26.68
1875.48	30.96
1875.82	33.8
1876.16	32.96
1876.5	31.16
1876.84	27.56
1877.18	23.4
1877.52	19.32
1877.86	13.04
1878.2	6.28
1878.54	1.44
1878.88	1.56
1879.22	1.96
1879.56	3.44
1879.9	3.08
1880.24	3.96
1880.58	5.68
1880.92	8.32
1881.26	8.4
1881.6	8.4
1881.94	8.44
1882.28	7.76
1882.62	10.44
1882.96	15.92
1883.3	19.8
1883.64	19.6
1883.98	18.56
1884.32	14.12
1884.66	7.16
1885	3.64
1885.34	5.2
1885.68	6.28
1886.02	6
1886.36	6.6
1886.7	5.64
1887.04	5.04
1887.38	4.44
1887.72	4.76
1888.06	4.6
1888.39	6.8
1888.73	9.48
1889.07	19.08
1889.41	25
1889.75	26.76
1890.09	32.04
1890.43	33.36
1890.77	24.8
1891.11	18.16
1891.45	17
1891.79	12.24
1892.13	8.48
1892.47	9.88
1892.8	11.68
1893.14	13.04
1893.48	14.44
1893.82	19.84
1894.16	19.28
1894.5	18.8
1894.84	18.8
1895.18	17.16
1895.52	13
1895.86	14.8
1896.19	17.08
1896.53	18.6
1896.87	20.92
1897.21	22.96
1897.55	22.2
1897.89	25.36
1898.23	31.24
1898.57	31.48
1898.9	30.4
1899.24	32.72
1899.58	31.96
1899.92	27.64
1900.26	28.52
1900.6	30.28
1900.94	29.68
1901.27	31.76
1901.61	34.76
1901.95	36.68
1902.29	39.8
1902.63	42.84
1902.97	44.12
1903.3	43.84
1903.64	47.28
1903.98	48.12
1904.32	48.52
1904.66	47.48
1905	50.36
1905.33	48.44
1905.67	49.68
1906.01	51.52
1906.35	54.84
1906.69	53.36
1907.02	53.6
1907.36	53.72
1907.7	55.48
1908.04	54.44
1908.38	56.24
1908.71	58.8
1909.05	61.4
1909.39	62.08
1909.73	63.48
1910.07	62.64
1910.4	63.16
1910.74	63.04
1911.08	63.56
1911.42	65.44
1911.76	69.12
1912.09	70.2
1912.43	70.76
1912.77	72
1913.11	73.92
1913.44	74.24
1913.78	75.36
1914.12	77.24
1914.46	78.12
1914.79	77.28
1915.13	77.72
1915.47	78.28
1915.81	78.56
1916.14	79
1916.48	79.16
1916.82	82.4
1917.16	83.4
1917.49	85.48
1917.83	85.56
1918.17	87.52
1918.5	88.08
1918.84	89.16
1919.18	89.16
1919.52	92.6
1919.85	91.36
1920.19	90.92
1920.53	92.8
1920.87	94.88
1921.2	93.04
1921.54	96.6
1921.88	98.36
1922.21	96.92
1922.55	96.68
1922.89	99.4
1923.22	99
1923.56	99.96
1923.9	102.96
1924.23	102.2
1924.57	99.4
1924.91	102.16
1925.25	100.64
1925.58	99.68
1925.92	101.88
1926.26	105.24
1926.59	102.28
1926.93	104.84
1927.27	105.72
1927.6	106.04
1927.94	104.24
1928.28	109.2
1928.61	109.6
1928.95	109.36
1929.29	109.72
1929.62	112.28
1929.96	108.08
1930.29	108.44
1930.63	110.36
1930.97	110.48
1931.3	111.28
1931.64	113.12
1931.98	113
1932.31	112.76
1932.65	114.68
1932.99	114.04
1933.32	114.16
1933.66	114.8
1933.99	115
1934.33	114.8
1934.67	115.6
1935	116.32
1935.34	114.8
1935.67	117.08
1936.01	115.8
1936.35	115.56
1936.68	116.36
1937.02	118.24
1937.35	117.6
1937.69	119.2
1938.03	120.2
1938.36	118.12
1938.7	118.64
1939.03	117.6
1939.37	116.84
1939.7	116.92
1940.04	120.44
1940.38	119.24
1940.71	120.16
1941.05	122.52
1941.38	121.56
1941.72	119.84
1942.05	122.84
1942.39	123.88
1942.73	121.44
1943.06	123.96
1943.4	124.92
1943.73	121.88
1944.07	120.96
1944.4	121.8
1944.74	119.52
1945.07	120.04
1945.41	121.64
1945.74	121.16
1946.08	121.28
1946.42	122.84
1946.75	121.92
1947.09	120.84
1947.42	123.6
1947.76	124
1948.09	122.12
1948.43	122.64
1948.76	124.24
1949.1	121.2
1949.43	121.84
1949.77	123.84
1950.1	122.76
1950.44	120.8
1950.77	123.72
1951.11	123.2
1951.44	120.72
1951.78	121.92
1952.11	123.92
1952.45	121.36
1952.78	120.52
1953.12	122.08
1953.45	121.92
1953.79	119
1954.12	118.88
1954.46	119.12
1954.79	117.68
1955.12	116.6
1955.46	118.08
1955.79	118.6
1956.13	116.28
1956.46	118.76
1956.8	118.92
1957.13	119.24
1957.47	116.2
1957.8	117.88
1958.14	115.16
1958.47	114.24
1958.8	112.52
1959.14	114.8
1959.47	114.2
1959.81	114.88
1960.14	116.32
1960.48	115.72
1960.81	114.04
1961.14	112.12
1961.48	111.96
1961.81	110.04
1962.15	108.2
1962.48	109.08
1962.82	110.6
1963.15	108.24
1963.48	106.52
1963.82	108.6
1964.15	106.72
1964.49	104.88
1964.82	104.64
1965.15	105.12
1965.49	103.64
1965.82	102.44
1966.16	102.32
1966.49	103.28
1966.82	101.72
1967.16	99.12
1967.49	97.96
1967.83	96.64
1968.16	92.96
1968.49	93.48
1968.83	94.64
1969.16	93.76
1969.49	93.12
1969.83	92.28
1970.16	90.36
1970.49	87.96
1970.83	87.36
1971.16	86.44
1971.5	84.08
1971.83	82.56
1972.16	82.64
1972.5	82.52
1972.83	80.64
1973.16	82
1973.5	81.28
1973.83	79.28
1974.16	76.88
1974.5	75.72
1974.83	74.6
1975.16	72.84
1975.5	72.08
1975.83	71.72
1976.16	71.48
1976.49	69.08
1976.83	68.28
1977.16	67.6
1977.49	65.28
1977.83	63.56
1978.16	62.36
1978.49	62.48
1978.83	59.6
1979.16	58.84
1979.49	57.8
1979.83	57.08
1980.16	53.56
1980.49	51.84
1980.82	51.44
1981.16	49.28
1981.49	48.36
1981.82	46.68
1982.15	46.88
1982.49	45.72
1982.82	44.32
1983.15	42.52
1983.49	42.6
1983.82	41.2
1984.15	39.56
1984.48	39.56
1984.82	38.64
1985.15	36.96
1985.48	35.52
1985.81	34
1986.15	32.2
1986.48	31.2
1986.81	31.36
1987.14	29
1987.48	28.16
1987.81	27.64
1988.14	26.44
1988.47	24.52
1988.81	24.56
1989.14	23.08
1989.47	21.32
1989.8	19.48
1990.13	18.56
1990.47	18.68
1990.8	16.8
1991.13	15.68
1991.46	15.32
1991.79	13.44
1992.13	12.24
1992.46	13.04
1992.79	11.72
1993.12	10.4
1993.45	10.48
1993.79	9.68
1994.12	8.68
1994.45	8.52
1994.78	9.44
1995.11	8.36
1995.45	8.48
1995.78	8.44
1996.11	8.6
1996.44	8.56
1996.77	8.92
1997.1	7.56
1997.44	7.92
1997.77	6.96
1998.1	6.2
1998.43	6.64
1998.76	6.52
1999.09	5.6
1999.43	4.92
1999.76	4.52
2000.09	3.16
2000.42	2.64
2000.75	1.36
2001.08	1.76
2001.41	1.16
2001.75	1.88
2002.08	1.92
2002.41	2.6
2002.74	2.44
2003.07	2.8
2003.4	2.2
2003.73	2.6
2004.06	2.32
2004.4	2.36
2004.73	2.92
2005.06	3.24
2005.39	2.84
2005.72	2.6
2006.05	2.88
2006.38	2.04
2006.71	1.8
2007.04	3.08
2007.37	3.44
2007.71	3.12
2008.04	3.4
2008.37	3.6
2008.7	2.84
2009.03	2.56
2009.36	2.84
2009.69	3.16
2010.02	2.76
2010.35	2.84
2010.68	3.96
2011.01	3.96
2011.34	3.84
2011.67	5.12
2012.01	5.88
2012.34	6.2
2012.67	6.48
2013	6.52
2013.33	5.32
2013.66	4.6
2013.99	3.44
2014.32	3.04
2014.65	2.64
2014.98	2.72
2015.31	2.44
2015.64	2.6
2015.97	2.92
2016.3	3.96
2016.63	4.8
2016.96	5.12
2017.29	5.6
2017.62	6.08
2017.95	5.8
2018.28	6.48
2018.61	7.28
2018.94	8.68
2019.27	9.16
2019.6	9
2019.93	9.36
2020.26	10.68
2020.59	9.6
2020.92	9.92
2021.25	9.6
2021.58	9.84
2021.91	8.84
2022.24	8.92
2022.57	8.64
2022.9	9.32
2023.23	8.48
2023.56	8.92
2023.89	8.84
2024.22	8.32
2024.55	8.52
2024.88	9.12
2025.21	8.48
2025.54	8.56
2025.87	9.52
2026.2	10.04
2026.53	9.92
2026.86	10.08
2027.19	10.6
2027.52	10.6
2027.85	9.64
2028.18	11.36
2028.51	11.8
2028.84	10.84
2029.16	11.48
2029.49	12.72
2029.82	11.04
2030.15	11.4
2030.48	11.48
2030.81	11.16
2031.14	11.76
2031.47	10.96
2031.8	10.12
2032.13	10.72
2032.46	10.36
2032.79	9.32
2033.12	9.92
2033.44	9.2
2033.77	9.16
2034.1	8.56
2034.43	7.68
2034.76	7.12
2035.09	7.36
2035.42	7.48
2035.75	7.88
2036.08	8.92
2036.41	9.84
2036.73	10.08
2037.06	9.96
2037.39	9.12
2037.72	8.48
2038.05	8.08
2038.38	7.84
2038.71	7.92
2039.04	7.72
2039.36	8.04
2039.69	7.2
2040.02	8.04
2040.35	7.6
2040.68	8.76
2041.01	7.88
2041.34	8.12
2041.66	7.04
2041.99	7.76
2042.32	6.72
2042.65	6.76
2042.98	7.4
2043.31	7.08
2043.63	7.12
2043.96	7.2
2044.29	7.36
2044.62	6.56
2044.95	6.56
2045.28	5.44
2045.6	4.96
2045.93	4.96
2046.26	4.12
2046.59	4.68
2046.92	4.6
2047.24	4.68
2047.57	4.28
2047.9	5.44
2048.23	4.52
2048.56	4.72
2048.88	4.8
2049.21	5.12
2049.54	4.44
2049.87	5.12
2050.2	4.44
2050.52	4.88
2050.85	4.56
2051.18	4.4
2051.51	3.32
2051.83	3.64
2052.16	2.52
2052.49	2.08
2052.82	1.88
2053.15	1.96
2053.47	1.56
2053.8	1.84
2054.13	2.24
2054.46	2.56
2054.78	2.8
2055.11	2.76
2055.44	2.68
2055.77	2.44
2056.09	2
2056.42	1.72
2056.75	2.2
2057.08	2.04
2057.4	1.96
2057.73	1.92
2058.06	1.96
2058.38	1.8
2058.71	1.64
2059.04	1.68
2059.37	1.76
2059.69	1.68
2060.02	1.2
2060.35	1.56
2060.67	1.68
2061	1.36
2061.33	1.56
2061.66	1.52
2061.98	1.32
2062.31	1.28
2062.64	2.24
2062.96	2.32
2063.29	2.6
2063.62	2.44
2063.94	2.08
2064.27	1.24
2064.6	0.6
2064.92	0.2
2065.25	1.12
2065.58	1.04
2065.91	0.92
2066.23	1.08
2066.56	1.52
2066.89	0.88
2067.21	0.96
2067.54	0.84
2067.87	1.2
2068.19	0.8
2068.52	0.64
2068.84	0.84
2069.17	1
2069.5	0.72
2069.82	0.48
2070.15	0.56
2070.48	0.48
2070.8	0.32
2071.13	1
2071.46	1.28
2071.78	1.36
2072.11	1.48
2072.43	1.72
2072.76	1.12
2073.09	1.08
2073.41	0.96
2073.74	1.32
2074.07	1.56
2074.39	1.48
2074.72	1.64
2075.04	1.48
2075.37	1.12
2075.7	1.08
2076.02	1
2076.35	1.24
2076.67	1.32
2077	1.16
2077.33	1.16
2077.65	1.16
2077.98	0.84
2078.3	1
2078.63	0.84
2078.95	0.4
2079.28	0.64
2079.61	0.4
2079.93	0.2
2080.26	0.36
2080.58	0.4
2080.91	0.64
2081.23	0.92
2081.56	0.96
2081.89	0.76
2082.21	0.72
2082.54	0.24
2082.86	0.32
2083.19	0.36
2083.51	0.88
2083.84	1.36
2084.16	1.36
2084.49	1.2
2084.81	1.28
2085.14	0.76
2085.46	0.32
2085.79	0.72
2086.12	0.64
2086.44	0.68
2086.77	1.4
2087.09	1.36
2087.42	1.2
2087.74	1.32
2088.07	1.72
2088.39	1.16
2088.72	1.52
2089.04	1.32
2089.37	1.4
2089.69	1.4
2090.02	1.76
2090.34	1.12
2090.67	1.4
2090.99	-0.92
2091.32	-1.56
2091.64	-1.76
2091.97	-1.04
2092.29	-1.36
2092.62	0.92
2092.94	1
2093.26	0.88
2093.59	0.76
2093.91	-0.4
2094.24	-0.24
2094.56	-0.32
2094.89	-0.44
2095.21	-0.76
2095.54	0.4
2095.86	0.12
2096.19	0.6
2096.51	0.52
2096.84	0.52
2097.16	0.56
2097.48	0.68
2097.81	0.52
2098.13	0.52
2098.46	0.32
2098.78	0.52
2099.11	0.68
2099.43	0.44
2099.75	0.44
2100.08	0.96
2100.4	0.72
2100.73	0.44
2101.05	0.36
2101.38	0.36
2101.7	0.4
2102.02	0.64
2102.35	0.6
2102.67	1.12
2103	1.16
2103.32	0.92
2103.64	1.12
2103.97	1.12
2104.29	0.8
2104.62	0.88
2104.94	0.88
2105.26	0.24
2105.59	0.28
2105.91	0.16
2106.23	0.2
2106.56	0.08
2106.88	0.28
2107.21	0.36
2107.53	0.28
2107.85	0.36
2108.18	0.56
2108.5	0.72
2108.82	0.6
2109.15	0.68
2109.47	0.44
2109.79	0.44
2110.12	0.28
2110.44	0.32
2110.76	0.52
2111.09	1
2111.41	0.8
2111.73	1
2112.06	0.96
2112.38	0.68
2112.7	-0.32
2113.03	-0.32
2113.35	-0.52
2113.67	-0.32
2114	-0.32
2114.32	0.2
2114.64	0.44
2114.97	0.88
2115.29	1.12
2115.61	1.12
2115.94	1.4
2116.26	1.16
2116.58	0.72
2116.91	-0.72
2117.23	-0.68
2117.55	-0.8
2117.87	-0.52
2118.2	-0.52
2118.52	0.48
2118.84	0.44
2119.17	0.4
2119.49	0.12
2119.81	0.16
2120.13	0.52
2120.46	0.52
2120.78	-0.6
2121.1	-0.48
2121.42	-0.52
2121.75	-0.8
2122.07	-0.68
2122.39	0.32
2122.72	0.28
2123.04	0.32
2123.36	0.32
2123.68	0.2
2124.01	0.44
2124.33	0.36
2124.65	0.32
2124.97	0.36
2125.29	0.36
2125.62	0.12
2125.94	0.12
2126.26	0.16
2126.58	0.08
2126.91	-0.76
2127.23	-0.76
2127.55	-0.6
2127.87	-0.4
2128.2	-0.32
2128.52	0.52
2128.84	0.52
2129.16	0.52
2129.48	0.28
2129.81	0.6
2130.13	0.76
2130.45	0.8
2130.77	0.64
2131.09	0.64
2131.42	0.24
2131.74	0.12
2132.06	0.08
2132.38	0.08
2132.7	0.4
2133.02	0.36
2133.35	0.32
2133.67	0.36
2133.99	0.52
2134.31	-0.4
2134.63	-0.4
2134.96	-0.4
2135.28	-0.44
2135.6	-0.6
2135.92	0.16
2136.24	0.16
2136.56	0.32
2136.88	0.32
2137.21	0.32
2137.53	0.16
2137.85	0.32
2138.17	-0.28
2138.49	-0.28
2138.81	-0.28
2139.13	-0.28
2139.46	-0.28
2139.78	0.44
2140.1	0.6
2140.42	0.76
2140.74	0.96
2141.06	0.96
2141.38	0.72
2141.7	0.56
2142.03	0.68
2142.35	0.52
2142.67	0.48
2142.99	0.44
2143.31	0.44
2143.63	0.16
2143.95	0.12
2144.27	0
2144.59	0.16
2144.91	-0.04
2145.24	-0.04
2145.56	0.12
2145.88	0.12
2146.2	0.12
2146.52	0.48
2146.84	0.48
2147.16	0.32
2147.48	0.32
2147.8	0.16
2148.12	0
2148.44	0
2148.76	0
2149.08	0
2149.41	0
2149.73	0
2150.05	0
2150.37	0
2150.69	0.24
2151.01	0.24
2151.33	0.24
2151.65	0.28
2151.97	0.36
2152.29	0.12
2152.61	-0.2
2152.93	-0.2
2153.25	-1.44334e-17
2153.57	-0.08
2153.89	-0.08
2154.21	-0.16
2154.53	-0.16
2154.85	-0.4
2155.17	-0.4
2155.49	-0.6
2155.81	-0.2
2156.13	-0.2
2156.45	-0.12
2156.77	-0.12
2157.09	0.08
2157.41	0.08
2157.73	0.12
2158.05	0.04
2158.37	0.16
2158.69	0.24
2159.01	0.24
2159.33	0.2
2159.65	0.2
2159.97	0.36
2160.29	0.44
2160.61	0.44
2160.93	0.44
2161.25	0.44
2161.57	0.16
2161.89	0.2
2162.21	0.2
2162.53	0.56
2162.85	0.24
2163.17	0.24
2163.49	0.04
2163.81	0.04
2164.13	-0.32
2164.45	-0.6
2164.77	-0.56
2165.08	-0.56
2165.4	-0.36
2165.72	-0.16
2166.04	0.52
2166.36	0.48
2166.68	0.48
2167	0.28
2167.32	0.28
2167.64	0.2
2167.96	0.2
2168.28	0.2
2168.6	0.24
2168.92	0.16
2169.24	0.24
2169.55	0.24
2169.87	0.24
2170.19	0.2
2170.51	0.08
2170.83	0.2
2171.15	0.2
2171.47	0.2
2171.79	0.2
2172.11	0.28
2172.43	0.08
2172.74	0.28
2173.06	0.28
2173.38	0.28
2173.7	0.2
2174.02	0.4
2174.34	0.2
2174.66	0.2
2174.98	0.2
2175.29	0.4
2175.61	0.4
2175.93	0.64
2176.25	0.72
2176.57	0.96
2176.89	0.76
2177.21	0.56
2177.52	0.32
2177.84	0.4
2178.16	0.48
2178.48	0.48
2178.8	0.48
2179.12	0.48
2179.43	0.4
2179.75	-0.84
2180.07	-0.84
2180.39	-0.84
2180.71	-0.56
2181.03	-0.64
2181.34	0.72
2181.66	0.76
2181.98	1.04
2182.3	0.76
2182.62	0.76
2182.93	-0.08
2183.25	-0.12
2183.57	-0.4
2183.89	-0.4
2184.21	-0.4
2184.52	0.04
2184.84	0.04
2185.16	0.04
2185.48	0.28
2185.8	0.28
2186.11	0.28
2186.43	0.28
2186.75	0.44
2187.07	-0.16
2187.39	-0.8
2187.7	-0.84
2188.02	-1.44
2188.34	-1.6
2188.66	-1.24
2188.97	-0.6
2189.29	-0.6
2189.61	0
2189.93	0
2190.24	0.04
2190.56	0.04
2190.88	0.04
2191.2	0.04
2191.51	0.12
2191.83	0.12
2192.15	0.12
2192.47	0.44
2192.78	0.44
2193.1	0.36
2193.42	0.32
2193.74	0.32
2194.05	0
2194.37	0
2194.69	0.04
2195	-0.36
2195.32	-0.08
2195.64	-0.08
2195.96	-0.08
2196.27	-0.12
2196.59	-0.32
2196.91	-0.6
2197.22	-0.6
2197.54	-0.44
2197.86	-0.4
2198.18	0.2
2198.49	0.44
2198.81	0.44
2199.13	0.28
2199.44	0.24
2199.76	0.24
2200.08	0
2200.39	0
2200.71	0
2201.03	0
2201.34	0
2201.66	0.08
2201.98	0.12
2202.29	0.12
2202.61	0.12
2202.93	0.12
2203.24	0.04
2203.56	0
2203.88	0
2204.19	0
2204.51	0
2204.83	0
2205.14	0
2205.46	0
2205.78	0.08
2206.09	0.16
2206.41	-0.04
2206.72	-0.24
2207.04	-0.16
2207.36	-0.64
2207.67	-0.72
2207.99	-0.52
2208.31	-0.32
2208.62	-0.4
2208.94	0.08
2209.25	0.08
2209.57	0.08
2209.89	0.08
2210.2	0.16
2210.52	0.2
2210.83	0.2
2211.15	0.28
2211.47	0.28
2211.78	0.2
2212.1	-0.32
2212.41	-0.32
2212.73	-0.4
2213.05	-0.28
2213.36	-0.2
2213.68	0.2
2213.99	0.36
2214.31	0.36
2214.62	0.68
2214.94	0.6
2215.26	0.64
2215.57	0.48
2215.89	0.48
2216.2	0.04
2216.52	0.2
2216.83	0.16
2217.15	0.16
2217.46	0.32
2217.78	0.32
2218.1	-0.04
2218.41	-0.04
2218.73	-0.04
2219.04	-0.2
2219.36	-0.2
2219.67	0
2219.99	0
2220.3	0
2220.62	0.24
2220.93	0.24
2221.25	0.24
2221.56	0.24
2221.88	0.24
2222.19	0
2222.51	0.04
2222.82	-1.36
2223.14	-1.36
2223.45	-1.36
2223.77	-1.28
2224.08	-1.32
2224.4	0.08
2224.71	0.08
2225.03	0.08
2225.34	0.08
2225.66	-1.32
2225.97	-1.32
2226.29	-1.32
2226.6	-1.32
2226.92	-1.4
2227.23	0
2227.55	0
2227.86	0
2228.18	0
2228.49	0
2228.81	0
2229.12	0
2229.44	0
2229.75	0
2230.07	0
2230.38	0
2230.69	0.24
2231.01	0.24
2231.32	0.24
2231.64	0.24
2231.95	0.24
2232.27	0
2232.58	0
2232.9	0
2233.21	0
2233.52	0
2233.84	0
2234.15	0
2234.47	0.28
2234.78	0.28
2235.1	0.52
2235.41	0.76
2235.72	0.84
2236.04	0.56
2236.35	0.8
2236.67	5.77338e-17
2236.98	-0.24
2237.29	-0.28
2237.61	-0.28
2237.92	-0.52
2238.24	0.08
2238.55	0.12
2238.86	0.28
2239.18	0.28
2239.49	-0.52
2239.8	-0.56
2240.12	-0.6
2240.43	-0.8
2240.75	-0.8
2241.06	0
2241.37	0.08
2241.69	0.08
2242	0.08
2242.31	0.2
2242.63	0.2
2242.94	0.12
2243.26	-0.48
2243.57	-0.36
2243.88	-0.48
2244.2	-0.32
2244.51	-0.32
2244.82	0.36
2245.14	0.24
2245.45	0.24
2245.76	0.08
2246.08	0.24
2246.39	0.16
2246.7	0.16
2247.02	0.16
2247.33	0.16
2247.64	0
2247.96	0
2248.27	0.24
2248.58	-0.76
2248.9	-0.76
2249.21	-0.76
2249.52	-0.76
2249.83	-0.6
2250.15	0.4
2250.46	0.4
2250.77	0.56
2251.09	0.56
2251.4	0.24
2251.71	0.24
2252.03	0.24
2252.34	0.08
2252.65	0.08
2252.96	0.12
2253.28	0.12
2253.59	0.12
2253.9	0.12
2254.21	0.12
2254.53	0.04
2254.84	-0.36
2255.15	-0.36
2255.47	-0.36
2255.78	-0.36
2256.09	-0.4
2256.4	0
2256.72	0
2257.03	0
2257.34	0
2257.65	0
2257.97	0
2258.28	0
2258.59	0.16
2258.9	0.16
2259.22	0.16
2259.53	0.16
2259.84	0.16
2260.15	0
2260.46	0
2260.78	0
2261.09	0
2261.4	0
2261.71	0
2262.03	0
2262.34	0
2262.65	0
2262.96	0
2263.27	0
2263.59	0
2263.9	0
2264.21	0
2264.52	0.12
2264.83	0.12
2265.15	0.12
2265.46	0.12
2265.77	0.12
2266.08	0
2266.39	0
2266.7	0
2267.02	0
2267.33	-0.4
2267.64	-0.4
2267.95	-0.4
2268.26	-0.4
2268.57	-0.4
2268.89	0.04
2269.2	0.04
2269.51	0.16
2269.82	0.16
2270.13	0.24
2270.44	0.2
2270.76	-0.2
2271.07	-0.24
2271.38	-0.68
2271.69	-0.76
2272	-0.76
2272.31	-0.56
2272.62	-1.44
2272.93	-1
2273.25	-0.92
2273.56	-0.92
2273.87	-0.72
2274.18	0.08
2274.49	0.08
2274.8	0.24
2275.11	0.24
2275.42	0.24
2275.74	0.28
2276.05	0.28
2276.36	0.04
2276.67	0.04
2276.98	0.04
2277.29	0
2277.6	0.04
2277.91	0.04
2278.22	-0.36
2278.53	-0.36
2278.85	-0.36
2279.16	-1.28
2279.47	-1.04
2279.78	-0.64
2280.09	-0.64
2280.4	-0.48
2280.71	0.4
2281.02	0.16
2281.33	0.16
2281.64	0.16
2281.95	0
2282.26	0.2
2282.57	0.24
2282.88	0.24
2283.19	0.24
2283.5	0.44
2283.82	0.24
2284.13	0.2
2284.44	0.2
2284.75	-0.4
2285.06	-0.6
2285.37	-0.6
2285.68	-0.6
2285.99	-0.6
2286.3	0
2286.61	0
2286.92	0
2287.23	0
2287.54	0
2287.85	0
2288.16	0
2288.47	0
2288.78	0
2289.09	0
2289.4	0
2289.71	0
2290.02	0
2290.33	0.12
2290.64	0.24
2290.95	0.04
2291.26	0.04
2291.57	0.04
2291.88	-0.2
2292.19	-0.32
2292.5	-0.12
2292.81	-0.12
2293.12	-0.12
2293.43	0
2293.74	0
2294.05	0
2294.36	0
2294.67	0
2294.98	0
2295.29	0
2295.6	0
2295.91	0
2296.21	0
2296.52	0
2296.83	0
2297.14	0
2297.45	0
2297.76	0
2298.07	0
2298.38	0
2298.69	0
2299	0
2299.31	0
2299.62	0
2299.93	0
2300.24	0
2300.55	0
2300.85	0
2301.16	0
2301.47	0
2301.78	0
2302.09	0
2302.4	0
2302.71	0
2303.02	0
2303.33	0
2303.64	0
2303.94	0
2304.25	0
2304.56	0
2304.87	0
2305.18	0
2305.49	0
2305.8	0
2306.11	0
2306.42	0
2306.72	0
2307.03	0
2307.34	0
2307.65	0
2307.96	0
2308.27	0
2308.58	0
2308.88	0
2309.19	0
2309.5	0
2309.81	0
2310.12	0
2310.43	0
2310.74	0
2311.04	0
2311.35	0
2311.66	0
2311.97	0
2312.28	0
2312.59	0
2312.89	0
2313.2	0
2313.51	0
2313.82	0
2314.13	0
2314.43	0
2314.74	0
2315.05	0
2315.36	0
2315.67	0
2315.97	0
2316.28	0
2316.59	0
2316.9	0
2317.21	0
2317.51	0
2317.82	0
2318.13	0
2318.44	0
2318.75	0
2319.05	0
2319.36	0
2319.67	0
2319.98	0
2320.28	0
2320.59	0
2320.9	0
2321.21	0
2321.51	0
2321.82	0
2322.13	0
2322.44	0
2322.74	0
2323.05	0
2323.36	0
2323.67	0
2323.97	0
2324.28	0
2324.59	0
2324.9	0
2325.2	0
2325.51	0
2325.82	0
2326.13	0
2326.43	0
2326.74	0
2327.05	0
2327.35	0
2327.66	0
2327.97	0
2328.27	0
2328.58	0
2328.89	0
2329.2	0
2329.5	0
2329.81	0
2330.12	0
2330.42	0
2330.73	0
2331.04	0
2331.34	0
2331.65	0
2331.96	0
2332.26	0
2332.57	0
2332.88	0
2333.18	0
2333.49	0
2333.8	0
2334.1	0
2334.41	0
2334.72	0
2335.02	0
2335.33	0
2335.64	0
2335.94	0
2336.25	0
2336.56	0
2336.86	0
2337.17	0
2337.48	0
2337.78	0
2338.09	0
2338.39	0
2338.7	0
2339.01	0
2339.31	0
2339.62	0
2339.93	0
2340.23	0
2340.54	0
2340.84	0
2341.15	0
2341.46	0
2341.76	0
2342.07	0
2342.37	0
2342.68	0
2342.99	0
2343.29	0
2343.6	0
2343.9	0
2344.21	0
2344.51	0
2344.82	0
2345.13	0
2345.43	0
2345.74	0
2346.04	0
2346.35	0
2346.65	0
2346.96	0
2347.27	0
2347.57	0
2347.88	0
2348.18	0
2348.49	0
2348.79	0
2349.1	0
2349.4	0
2349.71	0
2350.01	0
2350.32	0
2350.63	0
2350.93	0
2351.24	0
2351.54	0
2351.85	0
2352.15	0
2352.46	0
2352.76	0
2353.07	0
2353.37	0
2353.68	0
2353.98	0
2354.29	0
2354.59	0
2354.9	0
2355.2	0
2355.51	0
2355.81	0
2356.12	0
2356.42	0
2356.73	0
2357.03	0
2357.34	0
2357.64	0
2357.95	0
2358.25	0
2358.55	0
2358.86	0
2359.16	0
2359.47	0
2359.77	0
2360.08	0
2360.38	0
2360.69	0
2360.99	0
2361.3	0
2361.6	0
2361.9	0
2362.21	0
2362.51	0
2362.82	0
2363.12	0
2363.43	0
2363.73	0
2364.04	0
2364.34	0
2364.64	0
2364.95	0
2365.25	0
2365.56	0
2365.86	0
2366.16	0
2366.47	0
2366.77	0
2367.08	0
2367.38	0
2367.68	0
2367.99	0
2368.29	0
2368.6	0
2368.9	0
2369.2	0
2369.51	0
2369.81	0
2370.12	0
2370.42	0
2370.72	0
2371.03	0
2371.33	0
2371.63	0
2371.94	0
2372.24	0
2372.55	0
2372.85	0
2373.15	0
2373.46	0
2373.76	0
2374.06	0
2374.37	0
2374.67	0
2374.97	0
2375.28	0
2375.58	0
2375.88	0
2376.19	0
2376.49	0
2376.79	0
2377.1	0
2377.4	0
2377.7	0
2378.01	0
2378.31	0
2378.61	0
2378.92	0
2379.22	0
2379.52	0
2379.82	0
2380.13	0
2380.43	0
2380.73	0
2381.04	0
2381.34	0
2381.64	0
2381.95	0
2382.25	0
2382.55	0
2382.85	0
2383.16	0
2383.46	0
2383.76	0
2384.06	0
2384.37	0
2384.67	0
2384.97	0
2385.28	0
2385.58	0
2385.88	0
2386.18	0
2386.49	0
2386.79	0
2387.09	0
2387.39	0
2387.69	0
2388	0
2388.3	0
2388.6	0
2388.9	0
2389.21	0
2389.51	0
2389.81	0
2390.11	0
2390.42	0
2390.72	0
2391.02	0
2391.32	0
2391.62	0
2391.93	0
2392.23	0
2392.53	0
2392.83	0
2393.13	0
2393.44	0
2393.74	0
2394.04	0
2394.34	0
2394.64	0
2394.95	0
2395.25	0
2395.55	0
2395.85	0
2396.15	0
2396.45	0
2396.76	0
2397.06	0
2397.36	0
2397.66	0
2397.96	0
2398.26	0
2398.57	0
2398.87	0
2399.17	0
2399.47	0
2399.77	0
2400.07	0
2400.37	0
2400.68	0
2400.98	0
2401.28	0
2401.58	0
2401.88	0
2402.18	0
2402.48	0
2402.79	0
2403.09	0
2403.39	0
2403.69	0
2403.99	0
2404.29	0
2404.59	0
2404.89	0
2405.19	0
2405.5	0
2405.8	0
2406.1	0
2406.4	0
2406.7	0
2407	0
2407.3	0
2407.6	0
2407.9	0
2408.2	0
2408.5	0
2408.8	0
2409.11	0
2409.41	0
2409.71	0
2410.01	0
2410.31	0
2410.61	0
2410.91	0
2411.21	0
2411.51	0
2411.81	0
2412.11	0
2412.41	0
2412.71	0
2413.01	0
2413.31	0
2413.61	0
2413.91	0
2414.21	0
2414.51	0
2414.81	0
2415.12	0
2415.42	0
2415.72	0
2416.02	0
2416.32	0
2416.62	0
2416.92	0
2417.22	0
2417.52	0
2417.82	0
2418.12	0
2418.42	0
2418.72	0
2419.02	0
2419.32	0
2419.62	0
2419.92	0
2420.22	0
2420.52	0
2420.82	0
2421.12	0
2421.42	0
2421.71	0
2422.01	0
2422.31	0
2422.61	0
2422.91	0
2423.21	0
2423.51	0
2423.81	0
2424.11	0
2424.41	0
2424.71	0
2425.01	0
2425.31	0
2425.61	0
2425.91	0
2426.21	0
2426.51	0
2426.81	0
2427.11	0
2427.41	0
2427.7	0
2428	0
2428.3	0
2428.6	0
2428.9	0
2429.2	0
2429.5	0
2429.8	0
2430.1	0
2430.4	0
2430.7	0
2430.99	0
2431.29	0
2431.59	0
2431.89	0
2432.19	0
2432.49	0
2432.79	0
2433.09	0
2433.39	0
2433.68	0
2433.98	0
2434.28	0
2434.58	0
2434.88	0
2435.18	0
2435.48	0
2435.78	0
2436.07	0
2436.37	0
2436.67	0
2436.97	0
2437.27	0
2437.57	0
2437.86	0
2438.16	0
2438.46	0
2438.76	0
2439.06	0
2439.36	0
2439.66	0
2439.95	0
2440.25	0
2440.55	0
2440.85	0
2441.15	0
2441.44	0
2441.74	0
2442.04	0
2442.34	0
2442.64	0
2442.93	0
2443.23	0
2443.53	0
2443.83	0
2444.13	0
2444.42	0
2444.72	0
2445.02	0
2445.32	0
2445.62	0
2445.91	0
2446.21	0
2446.51	0
2446.81	0
2447.1	0
2447.4	0
2447.7	0
2448	0
2448.3	0
2448.59	0
2448.89	0
2449.19	0
2449.49	0
2449.78	0
2450.08	0
2450.38	0
2450.68	0
2450.97	0
2451.27	0
2451.57	0
2451.87	0
2452.16	0
2452.46	0
2452.76	0
2453.05	0
2453.35	0
2453.65	0
2453.95	0
2454.24	0
2454.54	0
2454.84	0
2455.13	0
2455.43	0
2455.73	0
2456.03	0
2456.32	0
2456.62	0
2456.92	0
2457.21	0
2457.51	0
2457.81	0
2458.1	0
2458.4	0
2458.7	0
2458.99	0
2459.29	0
2459.59	0
2459.88	0
2460.18	0
2460.48	0
2460.77	0
2461.07	0
2461.37	0
2461.66	0
2461.96	0
2462.26	0
2462.55	0
2462.85	0
2463.15	0
2463.44	0
2463.74	0
2464.04	0
2464.33	0
2464.63	0
2464.92	0
2465.22	0
2465.52	0
2465.81	0
2466.11	0
2466.41	0
2466.7	0
2467	0
2467.29	0
2467.59	0
2467.89	0
2468.18	0
2468.48	0
2468.77	0
2469.07	0
2469.37	0
2469.66	0
2469.96	0
2470.25	0
2470.55	0
2470.84	0
2471.14	0
2471.44	0
2471.73	0
2472.03	0
2472.32	0
2472.62	0
2472.91	0
2473.21	0
2473.51	0
2473.8	0
2474.1	0
2474.39	0
2474.69	0
2474.98	0
2475.28	0
2475.57	0
2475.87	0
2476.17	0
2476.46	0
2476.76	0
2477.05	0
2477.35	0
2477.64	0
2477.94	0
2478.23	0
2478.53	0
2478.82	0
2479.12	0
2479.41	0
2479.71	0
2480	0
2480.3	0
2480.59	0
2480.89	0
2481.18	0
2481.48	0
2481.77	0
2482.07	0
2482.36	0
2482.66	0
2482.95	0
2483.25	0
2483.54	0
2483.84	0
2484.13	0
2484.43	0
2484.72	0
2485.02	0
2485.31	0
2485.6	0
2485.9	0
2486.19	0
2486.49	0
2486.78	0
2487.08	0
2487.37	0
2487.67	0
2487.96	0
2488.26	0
2488.55	0
2488.84	0
2489.14	0
2489.43	0
2489.73	0
2490.02	0
2490.32	0
2490.61	0
2490.9	0
2491.2	0
2491.49	0
2491.79	0
2492.08	0
2492.37	0
2492.67	0
2492.96	0
2493.26	0
2493.55	0
2493.84	0
2494.14	0
2494.43	0
2494.73	0
2495.02	0
2495.31	0
2495.61	0
2495.9	0
2496.2	0
2496.49	0
2496.78	0
2497.08	0
2497.37	0
2497.66	0
2497.96	0
2498.25	0
2498.54	0
2498.84	0
2499.13	0
2499.43	0
2499.72	0
2500.01	0
2500.31	0
2500.6	0
2500.89	0
2501.19	0
2501.48	0
2501.77	0
2502.07	0
2502.36	0
2502.65	0
2502.95	0
2503.24	0
2503.53	0
2503.82	0
2504.12	0
2504.41	0
2504.7	0
2505	0
2505.29	0
2505.58	0
2505.88	0
2506.17	0
2506.46	0
2506.76	0
2507.05	0
2507.34	0
2507.63	0
2507.93	0
2508.22	0
2508.51	0
2508.8	0
2509.1	0
2509.39	0
2509.68	0
2509.98	0
2510.27	0
2510.56	0
2510.85	0
2511.15	0
2511.44	0
2511.73	0
2512.02	0
2512.32	0
2512.61	0
2512.9	0
2513.19	0
2513.49	0
2513.78	0
2514.07	0
2514.36	0
2514.65	0
2514.95	0
2515.24	0
2515.53	0
2515.82	0
2516.12	0
2516.41	0
2516.7	0
2516.99	0
2517.28	0
2517.58	0
2517.87	0
2518.16	0
2518.45	0
2518.74	0
2519.04	0
2519.33	0
2519.62	0
2519.91	0
2520.2	0
2520.5	0
2520.79	0
2521.08	0
2521.37	0
2521.66	0
2521.95	0
2522.25	0
2522.54	0
2522.83	0
2523.12	0
2523.41	0
2523.7	0
2523.99	0
2524.29	0
2524.58	0
2524.87	0
2525.16	0
2525.45	0
2525.74	0
2526.03	0
2526.33	0
2526.62	0
2526.91	0
2527.2	0
2527.49	0
2527.78	0
2528.07	0
2528.36	0
2528.66	0
2528.95	0
2529.24	0
2529.53	0
2529.82	0
2530.11	0
2530.4	0
2530.69	0
2530.98	0
2531.27	0
2531.57	0
2531.86	0
2532.15	0
2532.44	0
2532.73	0
2533.02	0
2533.31	0
2533.6	0
2533.89	0
2534.18	0
2534.47	0
2534.76	0
2535.05	0
2535.35	0
2535.64	0
2535.93	0
2536.22	0
2536.51	0
2536.8	0
2537.09	0
2537.38	0
2537.67	0
2537.96	0
2538.25	0
2538.54	0
2538.83	0
2539.12	0
2539.41	0
2539.7	0
2539.99	0
2540.28	0
2540.57	0
2540.86	0
2541.15	0
2541.44	0
2541.73	0
2542.02	0
2542.31	0
2542.6	0
2542.89	0
2543.18	0
2543.47	0
2543.76	0
2544.05	0
2544.34	0
2544.63	0
2544.92	0
2545.21	0
2545.5	0
2545.79	0
2546.08	0
2546.37	0
2546.66	0
2546.95	0
2547.24	0
2547.53	0
2547.82	0
2548.11	0
2548.4	0
2548.69	0
2548.98	0
2549.27	0
2549.55	0
2549.84	0
2550.13	0
2550.42	0
2550.71	0
2551	0
2551.29	0
2551.58	0
2551.87	0
2552.16	0
2552.45	0
2552.74	0
2553.03	0
2553.31	0
2553.6	0
2553.89	0
2554.18	0
2554.47	0
2554.76	0
2555.05	0
2555.34	0
2555.63	0
2555.92	0
2556.2	0
2556.49	0
2556.78	0
2557.07	0
2557.36	0
2557.65	0
2557.94	0
2558.23	0
2558.51	0
2558.8	0
2559.09	0
2559.38	0
2559.67	0
2559.96	0
2560.25	0
2560.53	0
2560.82	0
2561.11	0
2561.4	0
2561.69	0
2561.98	0
2562.27	0
2562.55	0
2562.84	0
2563.13	0
2563.42	0
2563.71	0
2564	0
2564.28	0
2564.57	0
2564.86	0
2565.15	0
2565.44	0
2565.72	0
2566.01	0
2566.3	0
2566.59	0
2566.88	0
2567.16	0
2567.45	0
2567.74	0
2568.03	0
2568.32	0
2568.6	0
2568.89	0
2569.18	0
2569.47	0
2569.75	0

